,T7,F8,Cz,P4
9000,533.9567260742189,-1017.7427368164062,434.1631164550781,345.21893310546875
9001,516.6597290039061,-1034.703125,421.2866516113281,339.30242919921875
9002,521.6150512695311,-1031.96923828125,432.577392578125,335.1922607421875
9003,548.4413452148439,-1010.7827758789062,452.52227783203125,344.8150329589844
9004,537.38623046875,-1029.429931640625,443.6624755859375,348.2220764160156
9005,518.279052734375,-1041.966064453125,425.6623229980469,343.1283264160156
9006,528.8517456054689,-1030.3424072265623,435.0419921875,340.5029296875
9007,548.796630859375,-1010.7154541015624,454.5605163574219,345.5480651855469
9008,543.067138671875,-1018.8609619140624,451.54241943359375,354.1947021484375
9009,512.175537109375,-1040.638427734375,423.85595703125,344.0895080566406
9010,524.7304077148439,-1032.5826416015623,436.7922668457031,340.81707763671875
9011,544.5967407226561,-1014.06640625,455.1028137207031,344.7327575683594
9012,536.2979125976561,-1018.2438354492188,449.8968811035156,350.1518859863281
9013,510.8628540039063,-1031.296142578125,427.2704772949219,343.0535583496094
9014,520.3846435546875,-1019.1563720703124,439.4401245117188,340.32342529296875
9015,551.8372192382811,-1004.9635009765624,460.8585205078125,342.3055725097656
9016,532.2849731445311,-1013.6362915039062,446.4374694824219,343.16949462890625
9017,510.9675598144531,-1029.6505126953123,424.5889587402344,341.0414733886719
9018,523.7767333984375,-1023.6517333984376,435.1317443847656,327.75360107421875
9019,542.2555541992189,-1006.9867553710938,459.197998046875,340.38323974609375
9020,529.0013427734375,-1009.3279418945312,448.0792846679688,348.11737060546875
9021,511.0573425292969,-1031.55419921875,421.2567138671875,342.0774230957031
9022,521.386962890625,-1025.9256591796877,432.4203186035156,340.66748046875
9023,542.7904052734375,-1008.7220458984376,451.5760803222656,344.1007080078125
9024,533.6051635742189,-1019.8670043945312,444.76947021484375,349.9798278808594
9025,509.7259216308594,-1036.6068115234377,421.4474487304688,337.1557312011719
9026,524.1395263671875,-1026.1275634765623,434.79888916015625,339.0518493652344
9027,543.2691040039061,-1004.9335327148438,454.0032958984375,340.5440673828125
9028,530.7628784179689,-1013.71484375,442.6526794433594,349.1308898925781
9029,509.1051025390625,-1032.2684326171877,422.35626220703125,339.22015380859375
9030,521.0428466796875,-1017.540771484375,430.6924743652344,336.71441650390625
9031,542.528564453125,-1007.517822265625,450.1063232421875,340.10650634765625
9032,534.7495727539061,-1017.5370483398438,444.3393859863281,340.3682861328125
9033,516.6746826171875,-1030.8360595703123,425.2397155761719,340.0728454589844
9034,519.2701416015625,-1023.8761596679688,426.309326171875,327.16644287109375
9035,550.4197998046875,-995.404296875,454.5680236816406,341.14617919921875
9036,529.04248046875,-1004.9373168945312,439.0885620117188,337.65313720703125
9037,509.0564880371094,-1024.6279296875,421.25299072265625,337.3876037597656
9038,517.6619873046875,-1019.5977172851562,428.16058349609375,334.4218444824219
9039,542.8876342773439,-998.2653198242188,447.75390625,337.8775329589844
9040,529.734375,-1016.2355346679688,435.5057373046875,339.7848815917969
9041,522.9577026367189,-1027.167236328125,426.2906188964844,340.4692687988281
9042,522.2171630859375,-1020.0577392578124,431.0851745605469,336.83782958984375
9043,543.3999633789061,-1001.5078125,444.4104309082031,339.96063232421875
9044,537.094482421875,-1011.8336791992188,442.177734375,344.41485595703125
9045,517.4002075195311,-1025.3272705078123,421.1819152832031,340.2336730957031
9046,527.621337890625,-1021.2955932617188,431.5975341796875,338.3300476074219
9047,550.6666259765625,-1009.3821411132812,448.7973327636719,341.23968505859375
9048,529.1509399414061,-1018.9488525390624,437.2784423828125,342.1821594238281
9049,517.0785522460939,-1025.7554931640623,418.5378112792969,338.6142883300781
9050,528.2608642578125,-1015.6278076171876,422.4460144042969,331.2728576660156
9051,540.2921142578125,-1004.5838623046876,435.5244445800781,331.1494445800781
9052,532.056884765625,-1017.37060546875,429.2489013671875,334.51910400390625
9053,523.372802734375,-1036.5076904296877,415.8488159179688,334.46673583984375
9054,535.3966064453125,-1021.0281982421876,432.0538024902344,338.15802001953125
9055,546.7584228515625,-1006.9774169921876,445.9999084472656,337.6231994628906
9056,540.0602416992189,-1011.4503173828124,439.6233825683594,344.8000793457031
9057,521.3196411132811,-1030.91650390625,417.75616455078125,337.380126953125
9058,534.2446899414061,-1024.9326171875,427.8127746582031,335.58123779296875
9059,550.849853515625,-1003.2449951171876,454.5605163574219,338.2889099121094
9060,535.35546875,-1009.6327514648438,442.4881286621094,342.51873779296875
9061,523.2755737304689,-1029.962890625,425.5576171875,340.3795166015625
9062,522.5201416015625,-1022.8345947265624,422.2178649902344,331.3813171386719
9063,544.4135131835939,-1001.1805419921876,446.4000549316406,338.98828125
9064,533.7772216796875,-1009.1129150390624,434.7427978515625,341.7745056152344
9065,512.13818359375,-1028.593994140625,416.0320739746094,339.64276123046875
9066,519.2963256835939,-1017.0714111328124,424.8283386230469,335.326904296875
9067,542.7567138671875,-997.8557739257812,439.6944274902344,338.56939697265625
9068,530.4636840820311,-1008.7576293945312,432.928955078125,340.85821533203125
9069,513.0020751953125,-1024.70458984375,413.2869873046875,330.4313659667969
9070,523.4775390625,-1017.770751953125,418.45928955078125,322.77581787109375
9071,548.2431640625,-995.092041015625,447.1031799316406,337.43621826171875
9072,536.9262084960939,-1004.7446899414062,438.9613952636719,342.122314453125
9073,511.2181396484375,-1028.911865234375,415.9273681640625,338.11688232421875
9074,525.2203369140625,-1014.3712158203124,430.1240234375,337.4137878417969
9075,543.9909057617189,-1000.2680053710938,455.23370361328125,344.1231689453125
9076,536.974853515625,-1009.3709716796876,438.867919921875,339.00323486328125
9077,515.567626953125,-1029.9254150390623,421.0435485839844,339.0929870605469
9078,526.8284912109375,-1022.6812744140624,434.05841064453125,339.0107116699219
9079,546.8406982421875,-1006.0536499023438,449.65753173828125,343.5546875
9080,537.6891479492189,-1017.2060546875,439.9936218261719,340.8544921875
9081,519.4234619140625,-1030.8304443359377,418.3844909667969,338.79754638671875
9082,522.2471313476561,-1023.687255859375,428.5943908691406,331.62066650390625
9083,533.2985229492189,-1010.6873779296876,447.4472351074219,331.254150390625
9084,530.5758666992189,-1011.4503173828124,439.4775085449219,339.0368957519531
9085,510.836669921875,-1029.3270263671877,417.2774658203125,333.8421630859375
9086,527.5128784179689,-1020.340087890625,426.59356689453125,334.3545227050781
9087,548.6395874023439,-1000.8028564453124,449.87445068359375,340.0578918457031
9088,536.3203735351561,-1014.7788696289062,447.507080078125,346.3296813964844
9089,523.6533203125,-1037.2593994140623,422.505859375,341.2023010253906
9090,534.8804931640625,-1028.3509521484377,433.51611328125,338.82745361328125
9091,546.623779296875,-1015.6053466796876,450.7420959472656,340.51416015625
9092,538.8110961914061,-1017.3070068359376,440.0796508789063,346.2436828613281
9093,512.4186401367189,-1030.9239501953123,427.2817077636719,346.4381408691406
9094,520.5567016601561,-1025.026123046875,432.8204956054688,339.62030029296875
9095,547.5849609375,-1005.9115600585938,460.0020751953125,345.4134216308594
9096,533.6687622070311,-1020.7813720703124,443.2174072265625,343.8314514160156
9097,511.7230224609375,-1033.474609375,425.8006896972656,336.3179931640625
9098,529.9475708007811,-1019.5584106445312,428.7552185058594,333.625244140625
9099,538.736328125,-1002.3025512695312,438.5649719238281,330.6034240722656
9100,530.706787109375,-1009.3485107421876,430.2736206054688,335.7532653808594
9101,514.569091796875,-1027.8572998046877,410.4297180175781,329.64599609375
9102,528.313232421875,-1020.8038330078124,423.6315612792969,327.9031982421875
9103,545.1315307617189,-1001.995849609375,442.94439697265625,333.41583251953125
9104,540.9615478515625,-1017.0751342773438,438.4004211425781,336.70318603515625
9105,515.67236328125,-1035.2398681640623,416.07696533203125,338.1692199707031
9106,530.8900146484375,-1023.29833984375,433.4001770019531,337.7578430175781
9107,553.583740234375,-1012.359130859375,451.4227600097656,339.4595031738281
9108,543.6954345703125,-1023.4553833007812,442.08795166015625,343.7267150878906
9109,524.2329711914061,-1045.610595703125,425.3332214355469,338.6068115234375
9110,530.3701782226561,-1036.937744140625,433.1383972167969,336.4226989746094
9111,542.738037109375,-1017.8941650390624,452.1370849609375,339.2276306152344
9112,533.418212890625,-1020.59814453125,445.4837951660156,347.2459716796875
9113,516.2744750976561,-1031.2044677734377,427.60333251953125,340.2523498535156
9114,522.7520141601561,-1025.5721435546877,436.42950439453125,334.1226501464844
9115,537.1768188476561,-1005.2009887695312,454.1902770996094,340.62261962890625
9116,537.2403564453125,-1010.4630126953124,446.3514404296875,349.5235595703125
9117,511.45001220703125,-1031.5560302734377,428.1306457519531,342.27191162109375
9118,521.8132934570311,-1025.6357421875,430.56158447265625,335.667236328125
9119,539.7984619140625,-1004.905517578125,448.3186340332031,340.9891052246094
9120,529.8353881835939,-1010.9118041992188,440.9547729492188,341.84930419921875
9121,511.4574890136719,-1027.0233154296877,425.1050720214844,340.6375732421875
9122,523.0997924804689,-1021.9407348632812,436.298583984375,337.73541259765625
9123,547.0875244140625,-1001.3712768554688,461.8196716308594,340.7684631347656
9124,540.0490112304689,-1017.4603271484376,443.9466857910156,341.3705749511719
9125,518.3576049804689,-1029.6785888671877,428.14935302734375,336.4825439453125
9126,525.5457153320311,-1018.8104858398438,429.7163696289063,332.72393798828125
9127,549.2604370117189,-997.122802734375,450.6448669433594,334.90057373046875
9128,538.971923828125,-1004.4530029296876,445.805419921875,341.52392578125
9129,519.4234619140625,-1024.166015625,420.5050048828125,335.28204345703125
9130,530.57958984375,-1012.1759033203124,429.60791015625,334.9230041503906
9131,549.9410400390625,-995.15185546875,451.250732421875,338.5207824707031
9132,532.3223876953125,-1006.8278198242188,432.5362548828125,342.6197204589844
9133,511.37896728515625,-1021.2301635742188,413.0289306640625,339.6165771484375
9134,519.6366577148439,-1001.93603515625,430.05670166015625,336.32171630859375
9135,539.0916137695311,-986.7669677734376,451.3030700683594,339.1341247558594
9136,534.8842163085939,-996.8721923828124,444.631103515625,350.5370788574219
9137,507.87841796875,-1016.1364135742188,420.0113220214844,341.2209777832031
9138,524.0123291015625,-1010.1151733398438,427.8763427734375,336.6583251953125
9139,546.8855590820311,-996.3486328125,453.6666870117188,339.08551025390625
9140,539.1102905273439,-1002.1043090820312,449.72857666015625,346.3670959472656
9141,513.9520263671875,-1019.8763427734376,430.0641784667969,337.4848327636719
9142,533.395751953125,-1010.5191040039062,437.7571716308594,332.5967712402344
9143,549.43994140625,-991.0267333984376,454.2164611816406,332.8772888183594
9144,533.5977172851561,-1004.5203247070312,441.04827880859375,339.9120178222656
9145,519.8984375,-1021.9407348632812,420.9649963378906,331.1307373046875
9146,531.9147338867189,-1019.23681640625,423.9195251464844,327.7984924316406
9147,538.41845703125,-1001.8500366210938,438.3966674804688,332.6379089355469
9148,524.12451171875,-1010.3320922851562,429.2563781738281,334.3096618652344
9149,507.10052490234375,-1025.4188232421877,411.36468505859375,336.8714904785156
9150,512.702880859375,-1014.2814331054688,422.247802734375,333.7673645019531
9151,536.8776245117189,-996.7225952148438,446.5272216796875,340.4580383300781
9152,528.5712890625,-1006.2855224609376,433.1458740234375,346.9766845703125
9153,506.4497680664063,-1020.3662719726562,417.8384399414063,340.5664978027344
9154,515.67236328125,-1016.18505859375,425.27337646484375,334.1937255859375
9155,541.3131103515625,-993.8054809570312,446.5272216796875,337.193115234375
9156,537.8798828125,-998.7421264648438,442.3086242675781,348.3043518066406
9157,513.5518188476561,-1016.5628051757812,414.7941589355469,328.8643493652344
9158,527.830810546875,-1004.0116577148438,422.5245361328125,327.5965270996094
9159,543.3401489257811,-987.6421508789062,448.1278991699219,328.9466552734375
9160,532.1653442382811,-1001.2890014648438,433.5909118652344,328.3033752441406
9161,513.2152709960939,-1015.9344482421876,411.1777038574219,330.69317626953125
9162,517.796630859375,-1006.618408203125,421.75787353515625,325.5657653808594
9163,534.1923217773439,-985.6861572265624,443.95416259765625,339.3510437011719
9164,524.4237060546875,-994.306640625,440.0796508789063,352.4407043457031
9165,503.0502014160156,-1019.3003540039062,417.9468994140625,344.0633239746094
9166,515.64990234375,-1025.62451171875,422.7077941894531,329.4477844238281
9167,539.1738891601561,-1002.9046630859376,444.4141845703125,334.08526611328125
9168,537.468505859375,-1010.2423706054688,431.8032531738281,337.9223937988281
9169,511.0984802246094,-1025.99853515625,413.7918701171875,329.6647033691406
9170,532.6514892578125,-1013.0547485351562,418.7322998046875,333.05303955078125
9171,546.6686401367189,-993.9214477539062,441.7102355957031,335.5363464355469
9172,540.0191040039061,-999.1984252929688,440.49102783203125,340.0391845703125
9173,518.8512573242189,-1012.2207641601562,420.9986572265625,339.7325134277344
9174,521.5215454101561,-1010.9080200195312,427.670654296875,332.9333801269531
9175,542.32666015625,-984.4258422851562,459.2279357910156,344.20916748046875
9176,528.9639892578125,-990.7350463867188,441.6578674316406,346.359619140625
9177,507.0406799316406,-1008.275146484375,417.65521240234375,336.8565368652344
9178,526.458251953125,-999.8080444335938,431.4666442871094,337.8401184082031
9179,530.2691650390625,-989.1343383789062,442.0430908203125,337.0884094238281
9180,522.4901733398439,-987.2606811523438,429.9332885742188,338.9022521972656
9181,498.6932067871094,-1004.4268188476562,412.400634765625,332.3611755371094
9182,513.4022216796875,-996.8871459960938,408.1109619140625,320.21771240234375
9183,534.6710815429689,-981.5348510742188,435.4982604980469,323.9127502441406
9184,538.1304931640625,-984.3098754882812,430.13897705078125,337.6456604003906
9185,519.6254272460939,-1002.5194702148438,420.1459655761719,336.9462890625
9186,530.7666015625,-1006.8876342773438,429.6976623535156,334.2872314453125
9187,547.633544921875,-992.0103149414062,453.3188781738281,344.50836181640625
9188,533.911865234375,-1001.6405639648438,447.1069030761719,348.30810546875
9189,518.3501586914061,-1017.8081665039062,418.5565185546875,338.1916809082031
9190,528.4104614257811,-1006.7156372070312,431.0216064453125,338.883544921875
9191,540.9765014648439,-989.4746704101562,445.8727416992188,336.2282409667969
9192,528.7432861328125,-999.400390625,436.2499694824219,341.2209777832031
9193,502.3695373535156,-1011.5924682617188,411.0019226074219,336.5722961425781
9194,512.8861694335939,-994.3515014648438,419.2446594238281,329.72454833984375
9195,521.4205932617189,-983.7040405273438,428.59814453125,327.3983154296875
9196,519.0270385742189,-982.3202514648438,425.2471923828125,333.7225036621094
9197,500.5519409179688,-996.079345703125,406.626220703125,327.2936096191406
9198,517.8153076171875,-987.3204956054688,416.6603698730469,331.9984130859375
9199,528.4478759765625,-975.4837036132812,438.7145690917969,332.2527160644531
9200,524.2142944335939,-985.1962280273438,442.7237548828125,344.4447937011719
9201,509.1163330078125,-1009.5803833007812,427.1246337890625,341.2209777832031
9202,517.2730712890625,-1003.0093994140624,437.25225830078125,337.5633850097656
9203,535.9500732421875,-984.7848510742188,451.1235656738281,345.24139404296875
9204,540.5576782226561,-996.64404296875,448.4532775878906,348.82794189453125
9205,529.2145385742189,-1011.1212158203124,431.3581848144531,346.0417175292969
9206,524.2591552734375,-1013.5596313476562,427.6743774414063,334.6537170410156
9207,541.5936279296875,-992.9415893554688,453.4834289550781,343.0946960449219
9208,533.3770751953125,-1003.697509765625,439.67572021484375,342.44769287109375
9209,507.87841796875,-1012.97998046875,418.58642578125,338.12060546875
9210,513.9183349609375,-1003.8284301757812,415.4673461914063,323.5237731933594
9211,541.1710205078125,-976.9310302734376,437.94415283203125,334.73974609375
9212,528.1337280273439,-988.2330322265624,427.1171569824219,336.6658020019531
9213,512.3064575195311,-1005.9639282226562,414.62213134765625,332.9857177734375
9214,517.8938598632811,-999.1947021484376,429.9482421875,331.9759521484375
9215,543.9534912109375,-983.0831909179688,454.6914367675781,336.1496887207031
9216,528.2160034179689,-987.0512084960938,445.2033081054688,344.6205749511719
9217,506.4123840332031,-1006.70068359375,418.0291748046875,334.1862487792969
9218,519.9994506835939,-1000.6008911132812,431.3170471191406,335.0351867675781
9219,546.69482421875,-987.6982421875,450.7159118652344,343.5733947753906
9220,537.0608520507811,-994.7142944335938,447.5257873535156,350.3575744628906
9221,514.1016235351561,-1015.9531860351562,425.4454040527344,341.9241027832031
9222,528.8106079101561,-1003.6002807617188,435.9620056152344,338.5881042480469
9223,547.73828125,-986.2097778320312,453.70782470703125,342.017578125
9224,535.415283203125,-991.468017578125,438.67718505859375,344.64300537109375
9225,515.3881225585939,-1004.1014404296876,419.5176696777344,336.2282409667969
9226,517.4974365234375,-1006.83154296875,417.75244140625,326.7513122558594
9227,539.8695068359375,-986.9203491210938,442.4806518554688,330.21820068359375
9228,531.2153930664061,-990.6527709960938,432.5661926269531,335.00152587890625
9229,509.2771301269531,-1005.5599975585938,409.1618957519531,335.0165100097656
9230,519.288818359375,-999.306884765625,422.9845581054688,331.1606750488281
9231,542.9400024414061,-978.8197021484376,442.6564331054688,337.6082458496094
9232,526.7387084960939,-986.6735229492188,428.54205322265625,337.84759521484375
9233,507.1753234863281,-1007.5982666015624,416.7239685058594,341.45660400390625
9234,516.1099243164061,-994.1719970703124,426.720703125,336.92010498046875
9235,531.5669555664061,-993.7643432617188,437.0802307128906,336.7630310058594
9236,522.232177734375,-996.1429443359376,437.2859191894531,349.07476806640625
9237,502.4256286621094,-1009.3896484375,419.371826171875,342.2120666503906
9238,520.1640014648439,-996.3187255859376,424.3234252929688,338.0420837402344
9239,532.397216796875,-980.7307739257812,436.64642333984375,339.6053466796875
9240,526.929443359375,-980.1249389648438,430.5690612792969,343.96234130859375
9241,514.3259887695311,-999.5911254882812,417.41583251953125,339.81854248046875
9242,508.7423400878906,-1001.1544189453124,418.7248229980469,327.97052001953125
9243,531.3836669921875,-976.9759521484376,442.8957824707031,340.5552978515625
9244,520.5043334960939,-992.9677734375,430.7149353027344,338.1243591308594
9245,504.7668151855469,-1009.4046020507812,411.7723388671875,338.70404052734375
9246,513.6416015625,-999.7294921875,419.196044921875,328.8606262207031
9247,535.8566284179689,-983.0308227539062,437.6524353027344,340.596435546875
9248,530.0298461914061,-992.6779174804688,428.527099609375,340.8414001464844
9249,508.9928894042969,-1001.4666748046876,414.782958984375,337.1949768066406
9250,519.300048828125,-1000.756103515625,417.3597412109375,330.83343505859375
9251,539.476806640625,-981.8995361328124,439.0885620117188,336.95562744140625
9252,532.5430297851561,-991.0921630859376,436.6838073730469,341.4846496582031
9253,512.3176879882811,-1011.5382080078124,414.3416442871094,341.4322814941406
9254,518.54833984375,-999.6004638671876,421.3315124511719,332.209716796875
9255,531.540771484375,-979.853759765625,442.6788635253906,330.98675537109375
9256,527.4006958007811,-988.98291015625,434.2491455078125,341.2079162597656
9257,506.7938537597656,-1000.8832397460938,415.7441101074219,336.24505615234375
9258,519.509521484375,-994.5889892578124,427.29290771484375,332.46026611328125
9259,540.3182983398439,-976.0091552734376,440.5920104980469,335.3923645019531
9260,520.0779418945311,-992.8275146484376,431.2646789550781,336.4769287109375
9261,504.1833801269531,-1014.0028076171876,409.360107421875,327.7442626953125
9262,507.8372802734375,-1002.9476928710938,418.41064453125,331.4692077636719
9263,529.1920776367189,-979.947265625,434.5558166503906,330.672607421875
9264,518.9111328125,-982.2211303710938,425.1163024902344,336.1852111816406
9265,497.04766845703125,-1005.2252807617188,408.7018737792969,331.9591369628906
9266,505.8813171386719,-998.209228515625,413.5076599121094,327.0673522949219
9267,531.5557250976561,-982.0565795898438,431.5863342285156,331.7721252441406
9268,521.5440063476561,-992.2328491210938,429.52191162109375,340.22430419921875
9269,498.2369384765625,-1000.5429077148438,408.98236083984375,336.9331970214844
9270,513.3087768554689,-997.0573120117188,418.28350830078125,329.6291809082031
9271,528.1075439453125,-978.5298461914062,435.3524169921875,334.17315673828125
9272,517.1795654296875,-979.6107177734376,431.9116821289063,341.4322814941406
9273,507.3435974121094,-1000.5989990234376,411.5255126953125,334.7266540527344
9274,516.2034301757811,-992.7825927734376,416.121826171875,329.6067199707031
9275,534.745849609375,-975.9456176757812,437.3382873535156,328.6642761230469
9276,531.96337890625,-980.7027587890624,430.6775207519531,336.6040954589844
9277,508.50299072265625,-995.3519287109376,409.7453002929688,331.83197021484375
9278,519.5357055664061,-989.4802856445312,420.6171875,330.68756103515625
9279,537.9434814453125,-973.2341918945312,436.6090087890625,336.1590270996094
9280,520.6464233398439,-980.4409790039062,420.3628845214844,337.03790283203125
9281,502.9903564453125,-989.383056640625,404.4496154785156,329.0307922363281
9282,508.73486328125,-980.381103515625,410.9794616699219,330.9007263183594
9283,532.4345703125,-962.9232788085938,431.7957458496094,331.0615539550781
9284,524.9024658203125,-963.3197021484376,428.1418762207031,340.85260009765625
9285,501.5617370605469,-990.0487670898438,403.7951354980469,328.06964111328125
9286,521.9067993164061,-979.9996337890624,417.142822265625,330.5304870605469
9287,533.9679565429689,-967.351318359375,433.23187255859375,329.8086853027344
9288,531.4061279296875,-976.5963134765624,423.74749755859375,336.7462158203125
9289,506.7452392578125,-985.2542114257812,408.0361633300781,331.4579772949219
9290,511.29669189453125,-974.7899780273438,416.07696533203125,325.4591979980469
9291,533.219970703125,-956.8384399414062,434.1593627929688,326.09869384765625
9292,523.0474243164061,-961.7564086914062,428.2091979980469,332.867919921875
9293,495.3834228515625,-975.792236328125,407.1236267089844,327.8976135253906
9294,506.9060363769531,-973.2715454101562,413.4814758300781,323.4246826171875
9295,536.8027954101561,-957.9566650390624,437.8057861328125,328.6642761230469
9296,519.1990966796875,-965.6870727539062,424.7497863769531,327.2580871582031
9297,499.8862609863281,-980.590576171875,397.3475341796875,325.1263427734375
9298,511.10595703125,-969.6962280273438,407.1049499511719,321.7566833496094
9299,540.0827026367189,-952.8704223632812,429.7762145996094,324.9991760253906
9300,523.99365234375,-962.399658203125,421.0211181640625,329.03826904296875
9301,506.4721984863281,-970.2459716796876,410.3623962402344,331.001708984375
9302,515.990234375,-975.0255737304688,420.1871032714844,327.62457275390625
9303,532.7674560546875,-954.3102416992188,438.9576721191406,327.4787292480469
9304,517.1907348632811,-958.4166870117188,426.3953552246094,333.8141174316406
9305,505.6943054199219,-977.7295532226562,413.7283020019531,329.8872375488281
9306,506.4422912597656,-972.3478393554688,422.0121765136719,330.4107971191406
9307,536.1483154296875,-957.1189575195312,437.671142578125,335.9383850097656
9308,521.3345947265625,-958.5812377929688,425.5688171386719,335.83740234375
9309,504.9425964355469,-979.9660034179688,406.9815368652344,332.60986328125
9310,514.0193481445311,-968.4508056640624,418.4143981933594,326.91400146484375
9311,530.7628784179689,-956.2400512695312,437.682373046875,330.76611328125
9312,521.2410888671875,-963.9442749023438,430.0604553222656,335.403564453125
9313,500.9595947265625,-979.8388061523438,407.5275573730469,327.17205810546875
9314,498.62591552734375,-970.7845458984376,412.6325073242188,320.9413757324219
9315,527.5615234375,-952.092529296875,433.3852233886719,326.8130187988281
9316,522.9801025390625,-974.2476806640624,425.6473693847656,331.846923828125
9317,505.67559814453125,-999.6715087890624,406.1961364746094,330.8708190917969
9318,516.5736694335939,-992.1804809570312,416.4434814453125,327.77044677734375
9319,537.0533447265625,-969.0342407226562,429.68646240234375,328.31646728515625
9320,529.2818603515625,-975.1303100585938,430.7672729492188,340.1981201171875
9321,506.8162841796875,-995.41552734375,411.3385009765625,329.4346923828125
9322,517.7779541015625,-987.3148803710938,419.4503479003906,327.3291320800781
9323,535.1310424804689,-969.6812744140624,438.7818908691406,327.5348205566406
9324,524.921142578125,-979.9547729492188,424.0392150878906,334.14697265625
9325,505.260498046875,-999.0993041992188,409.10205078125,331.25604248046875
9326,508.7984313964844,-987.8983154296876,415.2018127441406,326.3118896484375
9327,525.1829223632811,-974.6366577148438,437.5477294921875,332.1349182128906
9328,521.8319702148439,-981.7985229492188,428.8487243652344,333.4887390136719
9329,502.16009521484375,-997.2144165039062,410.4072570800781,334.2778625488281
9330,513.230224609375,-998.175537109375,419.3157043457031,331.0428466796875
9331,527.6250610351561,-981.719970703125,428.71783447265625,326.4652099609375
9332,523.4288940429689,-984.4613647460938,423.9980773925781,332.9277648925781
9333,502.2685546875,-1003.0748291015624,405.5790710449219,330.9418640136719
9334,512.8749389648439,-998.1830444335938,412.1949462890625,324.0043640136719
9335,536.1669921875,-985.3626708984376,431.2460021972656,326.599853515625
9336,539.8021850585939,-989.1436767578124,432.5025939941406,337.16131591796875
9337,502.8183288574219,-1010.932373046875,408.1259460449219,332.0002746582031
9338,518.9485473632811,-1002.88037109375,414.431396484375,330.3846435546875
9339,536.8439331054689,-988.9716796875,435.7600402832031,338.3393859863281
9340,525.8150024414061,-997.7567138671876,427.999755859375,336.4320373535156
9341,503.9253540039063,-1011.3886108398438,409.4349060058594,333.7842102050781
9342,515.4591674804689,-1003.9088134765624,418.7173156738281,329.1429748535156
9343,533.16015625,-991.8775634765624,442.34600830078125,334.4685974121094
9344,527.1426391601561,-995.8643188476562,430.9243774414063,336.4806823730469
9345,506.9322204589844,-1013.8457641601562,412.6213073730469,334.00860595703125
9346,521.9927978515625,-1002.6260375976562,422.0271301269531,324.3970642089844
9347,542.78662109375,-986.7688598632812,438.5462646484375,325.8144836425781
9348,523.2493896484375,-992.7676391601562,426.6945495605469,332.4116516113281
9349,503.2409362792969,-1001.743408203125,412.3594970703125,334.40875244140625
9350,511.0685424804688,-1003.1945190429688,413.6983947753906,325.33575439453125
9351,525.5158081054689,-982.1351318359376,438.78564453125,333.8963928222656
9352,521.846923828125,-993.0855712890624,434.8250732421875,336.7686462402344
9353,497.51513671875,-1010.3863525390624,410.1080932617188,337.8494873046875
9354,510.60107421875,-1008.2134399414062,415.2840881347656,333.900146484375
9355,536.271728515625,-986.39111328125,443.01171875,337.9541931152344
9356,530.8750610351561,-998.1643676757812,439.01751708984375,339.487548828125
9357,501.42333984375,-1009.7730102539062,408.2381286621094,325.33575439453125
9358,516.611083984375,-999.1815795898438,421.0136413574219,325.0814514160156
9359,540.4828491210939,-978.3241577148438,447.6417236328125,332.7781677246094
9360,533.7996826171875,-995.0602416992188,434.3912353515625,333.9375305175781
9361,520.5641479492189,-1008.2396240234376,421.7765808105469,330.56414794921875
9362,519.0083618164061,-1004.9410400390624,427.9885559082031,323.2002868652344
9363,537.4273681640625,-989.3456420898438,447.3687133789063,330.5304870605469
9364,532.3784790039061,-997.0274047851562,447.3238220214844,341.9895324707031
9365,512.4560546875,-1015.734375,419.0726318359375,335.59429931640625
9366,510.6758728027344,-1003.8377685546876,421.9411315917969,322.5570068359375
9367,529.76806640625,-984.4239501953124,440.47979736328125,334.6331481933594
9368,529.3790893554689,-995.5613403320312,434.6492919921875,341.31634521484375
9369,502.3246765136719,-1018.7599487304688,416.5481872558594,331.36822509765625
9370,518.5296630859375,-1015.300537109375,426.44769287109375,330.2911376953125
9371,539.9405517578125,-997.0610961914062,453.1281433105469,337.6026306152344
9372,534.8019409179689,-989.7981567382812,440.9622497558594,340.9273986816406
9373,518.70166015625,-1013.3370971679688,415.7702941894531,333.7879333496094
9374,528.795654296875,-1017.0695190429688,430.13525390625,334.17315673828125
9375,531.8885498046875,-1001.5115356445312,440.4685974121094,331.50286865234375
9376,528.8592529296875,-1000.711181640625,442.5143127441406,338.1449279785156
9377,510.4364929199219,-1019.994140625,428.6505126953125,336.7723693847656
9378,517.9761352539061,-1010.2891235351562,427.93243408203125,332.8342590332031
9379,540.1649780273439,-1003.4638061523438,444.6610107421875,332.67718505859375
9380,524.6967163085939,-1000.3783569335938,432.4090881347656,335.6317138671875
9381,505.3427734375,-1016.2243041992188,413.4665222167969,333.5186767578125
9382,513.8360595703125,-1019.8931274414062,426.5150146484375,327.9125671386719
9383,534.2970581054689,-996.107421875,438.8230285644531,328.4211730957031
9384,521.7422485351561,-1006.5866088867188,422.8349609375,330.6389465332031
9385,503.7046813964844,-1021.965087890625,409.68548583984375,330.343505859375
9386,513.6602783203125,-1016.0822143554688,421.1557312011719,328.6231384277344
9387,538.9457397460939,-992.7377319335938,441.89349365234375,340.04852294921875
9388,528.6348876953125,-998.5532836914062,439.8552551269531,346.54473876953125
9389,507.6241149902344,-1026.0902099609377,416.5407104492188,342.10174560546875
9390,512.560791015625,-1016.5646362304688,412.1276245117188,329.36737060546875
9391,537.9584350585939,-997.165771484375,448.5056457519531,336.1702575683594
9392,534.7720336914061,-1011.6878051757812,437.846923828125,340.7965087890625
9393,512.9908447265625,-1035.443603515625,419.536376953125,336.62652587890625
9394,517.5123901367189,-1024.912109375,425.4042663574219,329.9956970214844
9395,539.6713256835939,-1004.2828369140624,447.682861328125,339.30804443359375
9396,528.7059326171875,-1013.4642944335938,444.1075134277344,349.0878601074219
9397,507.3473510742188,-1036.6591796875,420.9725036621094,342.75994873046875
9398,512.044677734375,-1036.546875,423.0032653808594,339.8877258300781
9399,535.7705688476561,-1013.2361450195312,439.2830505371094,343.1975402832031
9400,526.4395141601561,-1022.2530517578124,437.6075744628906,345.931396484375
9401,509.4641418457031,-1036.9359130859377,424.22247314453125,347.38623046875
9402,519.0120849609375,-1036.1766357421877,424.607666015625,340.45245361328125
9403,537.820068359375,-1016.8339233398438,440.229248046875,336.0767517089844
9404,535.2133178710939,-1018.3373413085938,441.2053527832031,353.0895690917969
9405,505.1183776855469,-1048.4847412109377,420.7667846679688,343.78094482421875
9406,518.0135498046875,-1036.883544921875,427.27423095703125,340.8600769042969
9407,535.1796875,-1025.21875,448.96563720703125,339.734375
9408,524.2853393554689,-1024.3548583984377,437.31585693359375,341.8923034667969
9409,507.75872802734375,-1037.39208984375,422.0794982910156,345.920166015625
9410,517.609619140625,-1031.5205078125,429.6677551269531,334.9697570800781
9411,529.779296875,-1017.4397583007812,445.0125732421875,334.62567138671875
9412,527.445556640625,-1017.28271484375,440.6107177734375,348.4857482910156
9413,503.723388671875,-1032.4666748046877,415.4673461914063,339.9700012207031
9414,511.352783203125,-1029.71044921875,428.4560241699219,336.353515625
9415,533.3433837890625,-1016.2766723632812,441.6092529296875,335.2876281738281
9416,527.1912841796875,-1025.9443359375,433.9948120117188,341.26025390625
9417,509.1761474609375,-1043.9183349609377,421.2679443359375,339.1509704589844
9418,523.4476318359375,-1030.7613525390623,428.3213806152344,340.4187927246094
9419,535.3031005859375,-1016.7479248046876,450.48028564453125,343.1339416503906
9420,533.8034057617189,-1023.3002319335938,444.9190673828125,350.1238098144531
9421,508.62640380859375,-1043.424560546875,423.24261474609375,342.84222412109375
9422,519.6104736328125,-1039.359375,428.0857849121094,343.571533203125
9423,541.8292236328125,-1024.5567626953123,454.6914367675781,348.5381164550781
9424,530.1307983398439,-1033.0538330078123,444.59368896484375,349.9966735839844
9425,507.2613220214844,-1049.8460693359377,425.6361389160156,346.4437561035156
9426,520.5267333984375,-1039.209716796875,426.8553466796875,338.20849609375
9427,541.44775390625,-1020.7608032226562,444.4515686035156,337.9205322265625
9428,535.52001953125,-1024.773681640625,438.77813720703125,344.2484436035156
9429,511.1283874511719,-1047.2841796875,414.2257080078125,336.33856201171875
9430,517.620849609375,-1040.38037109375,425.6099548339844,333.5298767089844
9431,545.7224731445311,-1021.2694702148438,446.5159912109375,336.25628662109375
9432,534.558837890625,-1028.023681640625,439.2718200683594,344.065185546875
9433,521.8768310546875,-1050.242431640625,422.98828125,341.33880615234375
9434,517.5797119140625,-1049.890869140625,419.5438537597656,333.6009521484375
9435,545.5952758789061,-1024.7064208984377,447.09942626953125,345.097412109375
9436,533.6239013671875,-1039.4154052734377,435.62542724609375,351.0887145996094
9437,517.3777465820311,-1050.1826171875,418.2648010253906,346.20068359375
9438,524.9473266601561,-1039.112548828125,428.4971618652344,343.56402587890625
9439,536.2455444335939,-1017.8773803710938,443.4605102539063,340.90496826171875
9440,534.6710815429689,-1027.1224365234377,435.1766357421875,346.02862548828125
9441,511.88385009765625,-1045.9677734375,419.5887145996094,340.5047912597656
9442,525.9495849609375,-1035.08837890625,427.9885559082031,339.3603820800781
9443,547.0613403320311,-1022.8626098632812,446.6207275390625,342.5355529785156
9444,530.661865234375,-1027.8330078125,437.1625061035156,345.99871826171875
9445,509.6174621582031,-1038.222412109375,415.0596923828125,341.62677001953125
9446,517.4188842773439,-1029.4036865234377,420.0898742675781,336.9892883300781
9447,535.2021484375,-1009.9637451171876,446.2205505371094,337.1388854980469
9448,530.8750610351561,-1015.2706298828124,429.6565246582031,341.8100280761719
9449,504.1946105957031,-1038.078369140625,411.06549072265625,337.8606872558594
9450,515.9042358398439,-1030.6622314453123,419.7532958984375,334.558349609375
9451,544.4845581054689,-1009.9693603515624,447.62677001953125,336.69757080078125
9452,533.3770751953125,-1019.6781005859376,433.6245727539063,339.1883544921875
9453,510.9787902832031,-1035.8419189453123,413.4889526367188,336.0917053222656
9454,524.9510498046875,-1032.2816162109377,426.11859130859375,335.64666748046875
9455,545.3895874023439,-1013.5484008789062,445.77923583984375,341.7801208496094
9456,531.0770263671875,-1018.5711059570312,429.6565246582031,341.26025390625
9457,512.94970703125,-1039.7725830078123,415.803955078125,335.31756591796875
9458,519.1654052734375,-1030.295654296875,418.1039733886719,329.8909606933594
9459,544.48828125,-1012.0337524414062,448.176513671875,339.20330810546875
9460,533.8744506835939,-1019.483642578125,437.9815673828125,345.3853759765625
9461,513.076904296875,-1043.662109375,413.87042236328125,335.7177429199219
9462,516.9813232421875,-1031.61962890625,426.7095031738281,332.7257995605469
9463,547.5250854492189,-1016.6637573242188,454.7737121582031,343.6126708984375
9464,532.8759155273439,-1025.893798828125,437.8768310546875,344.7234191894531
9465,511.2817077636719,-1043.6920166015623,415.20556640625,335.403564453125
9466,523.2681274414061,-1030.8641357421877,434.64556884765625,336.7835998535156
9467,545.4307250976561,-1010.59765625,446.1270446777344,335.9234313964844
9468,533.7884521484375,-1015.4632568359376,437.342041015625,339.6221923828125
9469,525.1754760742189,-1037.6334228515623,419.1661071777344,333.92633056640625
9470,527.5951538085939,-1029.7459716796877,428.1269226074219,332.7669372558594
9471,547.8280029296875,-1003.5591430664062,448.0979919433594,338.70965576171875
9472,534.697265625,-1014.9022827148438,441.9720153808594,344.3531494140625
9473,509.9577941894531,-1042.0576171875,417.483154296875,333.9113464355469
9474,523.0811157226561,-1031.208251953125,425.3070373535156,332.2321472167969
9475,547.3605346679689,-1007.276611328125,447.41357421875,338.88916015625
9476,538.852294921875,-1013.2828979492188,438.7482299804688,342.3261413574219
9477,516.2969360351561,-1037.08740234375,421.4661560058594,341.2378234863281
9478,520.3397827148439,-1030.1685791015623,427.330322265625,336.1365966796875
9479,539.2860717773439,-1013.1893920898438,450.3493957519531,337.4231262207031
9480,537.9060668945311,-1015.1976928710938,439.877685546875,342.6440124511719
9481,521.3682250976561,-1035.894287109375,418.8108215332031,339.6184387207031
9482,522.4078979492189,-1031.888916015625,426.17095947265625,331.2373352050781
9483,539.77978515625,-1011.031494140625,447.1705017089844,337.09027099609375
9484,533.5079345703125,-1018.122314453125,440.0497131347656,343.0741271972656
9485,511.80157470703125,-1033.171630859375,417.0455932617188,336.3834228515625
9486,522.2471313476561,-1025.6993408203123,427.2330932617188,331.16253662109375
9487,537.2029418945311,-1006.6707153320312,445.300537109375,331.8394470214844
9488,527.2024536132811,-1009.4195556640624,441.5606384277344,334.1170654296875
9489,507.4146728515625,-1022.9729614257812,421.8177185058594,339.26690673828125
9490,513.2152709960939,-1016.8731689453124,430.3970336914063,336.69757080078125
9491,538.1454467773439,-997.605224609375,453.2291259765625,342.65899658203125
9492,526.6489868164061,-1010.7509765625,436.8820190429688,340.83392333984375
9493,514.5877685546875,-1031.350341796875,427.7604064941406,343.4705505371094
9494,517.302978515625,-1028.4481201171877,430.36712646484375,338.971435546875
9495,546.0702514648439,-1006.8801879882812,451.6246948242188,342.97314453125
9496,529.3865966796875,-1011.7196044921876,441.6915283203125,343.7884216308594
9497,511.6482238769531,-1030.2171630859377,422.8312072753906,342.75994873046875
9498,518.6044311523439,-1025.482421875,425.2247619628906,337.3296203613281
9499,535.3255615234375,-1006.420166015625,445.07989501953125,340.4486999511719
9500,524.7715454101561,-1006.0087890625,437.76837158203125,346.32781982421875
9501,511.9586486816406,-1025.3590087890623,422.68536376953125,340.9386291503906
9502,509.3182678222656,-1017.2396850585938,425.2135314941406,331.20367431640625
9503,527.3446044921875,-1000.4849243164062,447.68658447265625,333.41021728515625
9504,524.218017578125,-1003.719970703125,446.2579650878906,343.23492431640625
9505,508.4356689453125,-1025.5797119140623,421.89251708984375,339.0574645996094
9506,520.354736328125,-1018.2532348632812,435.1990661621094,335.7850341796875
9507,544.3274536132811,-1002.6279296875,457.5487060546875,341.5108337402344
9508,538.2277221679689,-1009.2625122070312,453.3824768066406,348.5792541503906
9509,527.5128784179689,-1034.4918212890623,429.5592956542969,340.8825378417969
9510,527.9467163085939,-1035.48291015625,432.4913940429688,330.1639709472656
9511,550.0607299804689,-1011.4091796875,450.3344421386719,336.7835998535156
9512,550.7937622070311,-1014.7377319335938,443.0154724121094,346.5484924316406
9513,513.9894409179689,-1039.4808349609377,418.3096923828125,335.0370788574219
9514,519.42724609375,-1028.418212890625,428.680419921875,335.4596862792969
9515,541.4328002929689,-1002.1192626953124,453.1580810546875,342.1914978027344
9516,527.5166015625,-1016.0989990234376,438.8903503417969,346.2268371582031
9517,504.54241943359375,-1030.516357421875,422.9134826660156,345.7630920410156
9518,509.4566650390625,-1025.2655029296877,428.2204284667969,339.7643127441406
9519,532.7637329101561,-1006.9661865234376,452.1707458496094,343.8108825683594
9520,525.732666015625,-1014.7713623046876,440.0758972167969,342.4645080566406
9521,507.4520568847656,-1021.678955078125,413.40667724609375,340.9610595703125
9522,517.5310668945311,-1016.7086181640624,428.867431640625,335.68408203125
9523,536.84765625,-997.406982421875,450.4279479980469,341.7987976074219
9524,534.6785278320311,-1010.2984619140624,442.237548828125,342.3336181640625
9525,511.35650634765625,-1029.297119140625,423.1004943847656,334.93609619140625
9526,522.3218994140625,-1023.0327758789062,426.814208984375,330.63519287109375
9527,544.3611450195311,-1009.0231323242188,447.6753845214844,338.795654296875
9528,541.8329467773439,-1018.9338989257812,445.39404296875,342.6701965332031
9529,516.2258911132811,-1041.350830078125,424.6862182617188,337.69989013671875
9530,525.0408325195311,-1028.911865234375,427.6519470214844,336.764892578125
9531,543.8263549804689,-1010.4143676757812,454.444580078125,343.5677795410156
9532,534.8543090820311,-1014.3412475585938,446.7927551269531,344.76080322265625
9533,505.3277893066406,-1038.9385986328123,421.5746154785156,339.1397399902344
9534,522.561279296875,-1027.2813720703123,432.5474853515625,343.4294128417969
9535,541.892822265625,-1008.615478515625,452.9785461425781,345.1647033691406
9536,537.1244506835939,-1018.0736694335938,445.3865661621094,346.2904357910156
9537,505.1221008300781,-1042.68603515625,427.42755126953125,343.373291015625
9538,508.8395690917969,-1026.959716796875,434.8624877929688,344.93658447265625
9539,530.684326171875,-1005.892822265625,458.7978515625,341.7427062988281
9540,524.6817626953125,-1012.0861206054688,454.1379089355469,347.6929016113281
9541,502.6724853515625,-1030.927734375,426.5299682617188,341.9633483886719
9542,524.16943359375,-1026.828857421875,434.0397033691406,340.6768493652344
9543,541.9937744140625,-1010.1937255859376,454.796142578125,343.57525634765625
9544,535.800537109375,-1013.0435180664062,453.59564208984375,351.3879089355469
9545,515.8032836914061,-1031.735595703125,431.3020935058594,343.2984924316406
9546,519.064453125,-1027.1915283203123,435.7077026367188,341.9820556640625
9547,538.2725830078125,-1004.61376953125,458.8389892578125,347.6143493652344
9548,528.500244140625,-1014.3001098632812,449.4069519042969,347.8050842285156
9549,516.7905883789061,-1029.51025390625,427.8651123046875,347.60687255859375
9550,519.0008544921875,-1027.0382080078123,433.3702697753906,335.5195007324219
9551,543.8824462890625,-1004.1051635742188,450.9515380859375,337.8606872558594
9552,532.2999877929689,-1018.8328857421876,440.2516784667969,343.1189880371094
9553,516.6634521484375,-1036.6048583984377,424.03173828125,335.9533386230469
9554,528.0476684570311,-1019.9398803710938,433.4039306640625,336.3236083984375
9555,540.5538940429689,-1009.0380859375,448.5467834472656,336.61529541015625
9556,536.305419921875,-1014.0794677734376,447.8399353027344,346.7803649902344
9557,516.5961303710939,-1029.132568359375,428.5233459472656,340.14202880859375
9558,523.4214477539061,-1028.3060302734377,433.2991943359375,332.0526123046875
9559,538.7587890625,-1010.7659301757812,459.3775329589844,343.76226806640625
9560,536.9785766601561,-1009.6738891601562,454.5343627929688,354.910888671875
9561,512.97216796875,-1033.9644775390623,433.6021423339844,337.6923828125
9562,514.98046875,-1026.85498046875,436.1228332519531,336.5704345703125
9563,538.137939453125,-1011.2296752929688,450.9066467285156,341.03961181640625
9564,534.2110595703125,-1014.4572143554688,448.00823974609375,341.0882263183594
9565,519.849853515625,-1030.1722412109377,427.9399108886719,341.1405944824219
9566,522.363037109375,-1027.4459228515623,430.65509033203125,340.79278564453125
9567,544.5107421875,-1011.6410522460938,454.5231323242188,342.73004150390625
9568,532.0419311523439,-1016.1177368164062,442.4469909667969,341.93719482421875
9569,516.7681274414061,-1029.506591796875,431.391845703125,341.4023742675781
9570,520.6240234375,-1023.709716796875,431.4329833984375,340.69927978515625
9571,542.9661254882811,-1001.1992797851562,455.40948486328125,340.7740783691406
9572,533.65380859375,-1008.1480102539062,448.6514892578125,345.4040832519531
9573,514.6251831054689,-1022.853271484375,434.0135192871094,344.3606262207031
9574,517.9125366210939,-1017.8268432617188,436.661376953125,338.2421569824219
9575,538.149169921875,-1002.8111572265624,454.1192321777344,340.1495056152344
9576,529.3903198242189,-1005.9900512695312,450.3344421386719,347.3675231933594
9577,504.4713745117188,-1020.833740234375,422.7227478027344,337.22491455078125
9578,514.8907470703125,-1028.9268798828123,424.8844299316406,332.6136169433594
9579,538.3660888671875,-1002.3660888671876,450.9253540039063,341.7464599609375
9580,528.5525512695311,-1008.944580078125,439.11846923828125,345.98748779296875
9581,501.7487182617188,-1032.80517578125,418.4817199707031,336.084228515625
9582,516.412841796875,-1025.3927001953123,426.8179626464844,337.0940246582031
9583,541.8179931640625,-1002.8897094726562,451.7593383789063,339.4389343261719
9584,534.8954467773439,-1004.0154418945312,444.5413513183594,348.4595642089844
9585,507.8709411621094,-1021.4583129882812,422.7564086914063,342.1503601074219
9586,513.899658203125,-1018.1372680664062,431.4367370605469,337.25482177734375
9587,548.1047973632811,-996.7301025390624,457.6534423828125,345.3816223144531
9588,533.5303955078125,-1011.5886840820312,445.6932373046875,347.0945129394531
9589,516.6784057617189,-1033.0931396484377,422.4310607910156,346.9449157714844
9590,522.2022094726561,-1029.44677734375,435.39727783203125,341.89605712890625
9591,542.5098876953125,-1012.6620483398438,452.5297546386719,344.899169921875
9592,529.005126953125,-1012.3441772460938,449.3957214355469,349.39080810546875
9593,513.5144653320311,-1023.3020629882812,429.3236999511719,345.0637512207031
9594,515.6424560546875,-1019.8875732421876,433.9349670410156,335.3960876464844
9595,535.3031005859375,-996.737548828125,461.239990234375,346.3988952636719
9596,527.7559814453125,-1000.5447998046876,456.35943603515625,345.6845703125
9597,504.2058410644531,-1028.39208984375,418.60888671875,335.74017333984375
9598,512.5196533203125,-1016.1663208007812,428.4971618652344,336.6190490722656
9599,541.4963989257811,-1003.4880981445312,453.3749694824219,342.210205078125
9600,533.582763671875,-1012.4489135742188,452.6195373535156,346.963623046875
9601,514.3634033203125,-1028.9942626953123,428.4186401367188,335.9533386230469
9602,523.8029174804689,-1028.6875,428.08203125,334.8351135253906
9603,547.2184448242189,-1005.9489135742188,452.6382141113281,341.8137512207031
9604,533.2611083984375,-1016.8395385742188,445.3529052734375,338.9228210449219
9605,519.58056640625,-1028.0704345703123,424.8395385742188,339.6558532714844
9606,525.7214965820311,-1024.270751953125,425.0078430175781,339.0200500488281
9607,542.4986572265625,-1006.0012817382812,451.94635009765625,339.39404296875
9608,535.6808471679689,-1010.0216674804688,446.7852783203125,347.18798828125
9609,514.943115234375,-1023.4329833984376,429.4620666503906,345.4788818359375
9610,527.0640869140625,-1024.345458984375,444.3917541503906,348.49322509765625
9611,552.1925048828125,-1008.8473510742188,458.693115234375,345.5835876464844
9612,540.0939331054689,-1014.98828125,443.41937255859375,341.66790771484375
9613,519.0831298828125,-1033.272705078125,429.83978271484375,341.1256103515625
9614,526.89208984375,-1030.176025390625,437.2560119628906,338.7021789550781
9615,555.0535278320311,-1011.2034912109376,456.2771301269531,339.40899658203125
9616,542.738037109375,-1018.5262451171876,455.6039733886719,344.9627685546875
9617,523.5411376953125,-1033.33251953125,438.3480529785156,344.2222595214844
9618,531.4210815429689,-1029.90673828125,443.1837463378906,332.9277648925781
9619,550.240234375,-1016.0279541015624,465.5895080566406,335.3100891113281
9620,545.3746337890625,-1020.4859619140624,464.5423278808594,354.3835754394531
9621,518.7203979492189,-1036.84423828125,439.0137634277344,345.2918701171875
9622,527.2136840820311,-1032.666748046875,442.6040649414063,341.51458740234375
9623,548.5685424804689,-1014.8424072265624,460.6228942871094,345.1347961425781
9624,547.3455810546875,-1021.3461303710938,456.59130859375,355.37091064453125
9625,515.49658203125,-1040.89453125,431.3058471679688,343.1451721191406
9626,525.1343383789061,-1032.7939453125,438.9314880371094,343.5677795410156
9627,548.677001953125,-1022.535400390625,460.32745361328125,345.49383544921875
9628,535.9276733398439,-1027.464599609375,457.1373291015625,353.0222473144531
9629,518.9896850585939,-1043.9725341796877,430.58404541015625,351.28692626953125
9630,525.2689208984375,-1038.770263671875,438.4228515625,340.71051025390625
9631,542.3303833007811,-1013.28662109375,461.15771484375,346.4437561035156
9632,542.29296875,-1016.4393310546876,455.0915832519531,349.58526611328125
9633,518.4623413085939,-1035.15380859375,438.4565124511719,347.5694580078125
9634,523.8440551757811,-1035.378173828125,440.0123291015625,338.9527282714844
9635,542.7342529296875,-1014.3412475585938,468.0615539550781,345.4751281738281
9636,530.0298461914061,-1027.277587890625,451.7032470703125,348.6016845703125
9637,515.3993530273439,-1042.2110595703123,433.609619140625,349.6339111328125
9638,522.4041748046875,-1044.30908203125,435.12054443359375,341.3612365722656
9639,544.6116943359375,-1023.7134399414062,456.0191040039063,346.8215026855469
9640,535.3928833007811,-1022.1240234375,447.4248046875,347.8611755371094
9641,512.220458984375,-1040.2550048828123,433.2206726074219,347.6517639160156
9642,519.25146484375,-1036.51513671875,435.8086853027344,341.4846496582031
9643,544.922119140625,-1021.361083984375,459.2765502929688,346.1408386230469
9644,538.2052612304689,-1027.0457763671877,451.1123352050781,347.6405334472656
9645,511.1396179199219,-1042.502685546875,429.9295349121094,346.58587646484375
9646,527.5016479492189,-1034.906982421875,439.208251953125,336.84344482421875
9647,542.8464965820311,-1013.7466430664062,458.50238037109375,340.27667236328125
9648,534.053955078125,-1019.5771484375,453.9920654296875,344.42047119140625
9649,520.2948608398439,-1042.932861328125,433.2655334472656,348.7849426269531
9650,522.2227783203125,-1040.3671875,437.6393432617188,342.3149108886719
9651,543.6748657226561,-1024.7457275390623,464.1514892578125,345.5050354003906
9652,535.2900390625,-1029.6524658203123,453.0776672363281,347.1506042480469
9653,505.14642333984375,-1042.910400390625,424.1083984375,342.77117919921875
9654,510.7113952636719,-1032.9061279296877,428.5401611328125,334.77154541015625
9655,529.223876953125,-1011.7420654296876,454.4165344238281,343.28729248046875
9656,532.9488525390625,-1010.4180908203124,448.08489990234375,350.91668701171875
9657,507.3230285644531,-1041.2535400390623,421.3258972167969,343.35833740234375
9658,515.23291015625,-1036.0401611328123,431.2964782714844,340.5309753417969
9659,537.4666137695311,-1021.6490478515624,452.2062683105469,341.06951904296875
9660,535.2638549804689,-1021.4208984375,448.1896057128906,348.35858154296875
9661,512.7271728515625,-1037.420166015625,422.9415588378906,339.39031982421875
9662,518.8681030273439,-1030.363037109375,435.11865234375,337.4941711425781
9663,541.6104125976561,-1014.730224609375,451.5218505859375,339.7119445800781
9664,531.88671875,-1020.3101806640624,445.86712646484375,343.8706970214844
9665,514.5634765625,-1031.9449462890623,425.0171813964844,341.8175048828125
9666,522.05078125,-1029.540283203125,425.69036865234375,332.7257995605469
9667,540.7166137695311,-1009.4195556640624,456.2378845214844,336.57415771484375
9668,527.9111938476561,-1016.701171875,442.8639831542969,342.1952209472656
9669,513.3480224609375,-1030.7706298828123,422.4703063964844,342.21392822265625
9670,515.831298828125,-1028.3509521484377,427.2760925292969,330.683837890625
9671,534.482177734375,-1007.9722290039062,443.95977783203125,333.735595703125
9672,527.5858154296875,-1014.0645141601562,442.5049743652344,339.652099609375
9673,513.778076171875,-1024.8765869140623,429.0787353515625,345.72943115234375
9674,516.4072265625,-1025.961181640625,425.4996337890625,334.1507263183594
9675,540.1069946289061,-1009.8085327148438,446.4991760253906,340.15325927734375
9676,535.9781494140625,-1019.4312744140624,443.9410705566406,346.7242431640625
9677,511.8483276367188,-1035.8681640625,420.3273620605469,339.816650390625
9678,519.2645263671875,-1021.7462768554688,433.345947265625,339.5062561035156
9679,542.100341796875,-1006.4126586914062,453.9378356933594,339.73065185546875
9680,533.6519165039061,-1012.5723266601562,446.5515441894531,342.7674255371094
9681,520.0536499023439,-1037.0274658203123,426.5954284667969,339.1546936035156
9682,517.9219360351561,-1028.1302490234377,427.736083984375,331.6487121582031
9683,543.1812133789061,-1013.4137573242188,456.0172119140625,342.4084167480469
9684,539.3590087890625,-1021.8809204101562,453.7059631347656,347.621826171875
9685,508.8302307128906,-1033.9608154296877,423.45391845703125,335.95709228515625
9686,515.161865234375,-1016.5628051757812,429.5350036621094,331.7309875488281
9687,536.0828857421875,-1002.8223876953124,454.9176940917969,340.6132507324219
9688,531.0826416015625,-1007.7628173828124,449.625732421875,340.6319580078125
9689,508.0149230957031,-1021.712646484375,429.5013427734375,342.1802673339844
9690,510.5206604003906,-1021.91455078125,431.0795593261719,333.1970520019531
9691,544.493896484375,-997.923095703125,461.2792663574219,339.9961853027344
9692,536.8121337890625,-1009.2288208007812,446.82080078125,341.66790771484375
9693,515.3787841796875,-1027.58056640625,423.4053039550781,335.9383850097656
9694,515.90234375,-1019.7379760742188,427.8819580078125,332.1573486328125
9695,542.8595581054689,-998.0091552734376,454.46142578125,336.7424621582031
9696,535.2376708984375,-1010.59765625,443.9373474121094,338.5787658691406
9697,516.4371948242189,-1028.029296875,430.0660705566406,337.9803771972656
9698,516.4371948242189,-1021.7425537109376,429.0487976074219,328.0883483886719
9699,535.5330810546875,-1001.8013916015624,453.0103454589844,336.39837646484375
9700,537.6349487304689,-1005.5487670898438,449.0460510253906,343.3882751464844
9701,514.7579345703125,-1021.678955078125,429.965087890625,339.97747802734375
9702,523.7823486328125,-1020.328857421875,442.0038146972656,335.1230773925781
9703,540.0471801757811,-1005.5375366210938,455.9162292480469,340.00738525390625
9704,532.4177856445311,-1011.7271118164062,451.832275390625,345.7331848144531
9705,512.8244018554689,-1030.176025390625,427.9679565429688,340.4225158691406
9706,513.5612182617189,-1019.2816772460938,436.83154296875,338.88543701171875
9707,540.6044311523439,-998.5813598632812,459.4130554199219,338.9190979003906
9708,538.7681274414061,-1006.8914184570312,450.56817626953125,346.8775939941406
9709,509.1630554199219,-1025.9200439453123,428.5850524902344,340.8900146484375
9710,526.6022338867189,-1007.4972534179688,438.2414855957031,342.46075439453125
9711,543.3682250976561,-1001.008544921875,458.5940246582031,336.7275085449219
9712,539.4039306640625,-1009.273681640625,449.6893005371094,343.3134765625
9713,512.1774291992189,-1020.6280517578124,432.2875671386719,334.4648742675781
9714,520.15087890625,-1017.5538330078124,436.233154296875,330.8296813964844
9715,542.4818115234375,-994.0784912109376,458.29107666015625,332.26580810546875
9716,538.1884155273439,-998.7047729492188,451.8509826660156,337.38946533203125
9717,515.5994262695311,-1016.3309326171876,433.2374877929688,337.2997131347656
9718,520.6669921875,-1014.8424072265624,437.429931640625,326.869140625
9719,535.2750244140625,-995.3088989257812,459.6449279785156,335.2689514160156
9720,534.9571533203125,-994.6544189453124,457.90960693359375,347.14312744140625
9721,507.8765563964844,-1018.1073608398438,429.8940124511719,335.8561096191406
9722,516.26513671875,-1008.3125610351562,436.2780151367188,332.351806640625
9723,535.0842895507811,-993.4127807617188,456.6343078613281,334.9884338378906
9724,533.56591796875,-999.647216796875,450.7663879394531,344.81317138671875
9725,510.21771240234375,-1015.9120483398438,428.10260009765625,336.65643310546875
9726,520.0536499023439,-1012.7705078125,434.696044921875,334.2105407714844
9727,540.8811645507811,-992.6909790039062,454.36419677734375,333.09979248046875
9728,530.1401977539061,-999.8604125976562,443.0734252929688,336.2899475097656
9729,517.1889038085939,-1015.0556030273438,423.2706604003906,331.87310791015625
9730,519.245849609375,-1008.6528930664062,429.5536804199219,328.58575439453125
9731,542.100341796875,-995.98583984375,450.4522399902344,332.20220947265625
9732,537.182373046875,-1003.379638671875,448.36163330078125,336.86962890625
9733,511.9380798339844,-1019.165771484375,422.2234802246094,335.14178466796875
9734,514.7916259765625,-1011.57373046875,432.7513122558594,334.6817626953125
9735,545.3652954101561,-992.40673828125,456.5146179199219,337.98785400390625
9736,538.8167114257811,-1002.7662963867188,447.21722412109375,339.37908935546875
9737,507.9737854003906,-1021.1591186523438,425.5332946777344,337.40069580078125
9738,511.7622985839844,-1017.7296142578124,432.08184814453125,334.5097351074219
9739,529.9531860351561,-997.769775390625,452.3820495605469,339.36785888671875
9740,526.7069702148439,-1003.6339721679688,439.65142822265625,341.8399353027344
9741,510.150390625,-1022.393310546875,415.8880920410156,341.75018310546875
9742,513.9351806640625,-1019.2554931640624,423.2444763183594,335.2016296386719
9743,539.2281494140625,-994.27294921875,448.6196899414063,343.39947509765625
9744,529.433349609375,-1008.7388916015624,444.2066040039063,343.231201171875
9745,513.41162109375,-1026.8399658203123,425.4285888671875,336.9182434082031
9746,516.78125,-1022.6700439453124,429.1460266113281,331.44677734375
9747,546.7153930664061,-1000.1334228515624,456.1556091308594,336.74993896484375
9748,534.8861083984375,-1007.5758056640624,451.0169677734375,342.5355529785156
9749,520.6595458984375,-1024.5250244140623,431.5844421386719,338.2982482910156
9750,515.9434814453125,-1019.0946655273438,436.85772705078125,333.94500732421875
9751,534.7140502929689,-999.4415283203124,452.5765075683594,337.5465393066406
9752,530.794677734375,-1005.6273193359376,444.7414245605469,344.9141540527344
9753,506.70220947265625,-1030.998779296875,423.5174865722656,340.0971374511719
9754,514.3690185546875,-1020.010986328125,430.9262390136719,335.56439208984375
9755,539.52734375,-1002.1342163085938,453.1748962402344,337.0528869628906
9756,527.6718139648439,-1007.8001708984376,445.3248596191406,342.46826171875
9757,512.8094482421875,-1019.4088134765624,427.4369201660156,337.8345031738281
9758,518.4903564453125,-1012.557373046875,430.45501708984375,328.5558166503906
9759,534.6243286132811,-994.14208984375,450.1829833984375,333.23443603515625
9760,525.349365234375,-1002.4595947265624,445.6838684082031,341.7838439941406
9761,505.9280700683594,-1015.1790161132812,433.9368591308594,343.6238708496094
9762,513.9912719726561,-1016.2972412109376,435.6422424316406,335.074462890625
9763,536.3222045898439,-997.2947998046876,448.6758117675781,333.713134765625
9764,530.925537109375,-1005.3430786132812,444.8386535644531,344.2783508300781
9765,502.19189453125,-1018.5598754882812,419.7402038574219,333.11102294921875
9766,514.0025024414061,-1018.5935668945312,429.8940124511719,329.662841796875
9767,536.3558959960939,-997.8969116210938,446.2261657714844,338.14117431640625
9768,527.0958862304689,-1004.531494140625,440.5078430175781,340.93487548828125
9769,511.2461853027344,-1017.968994140625,421.3258972167969,338.5563049316406
9770,524.9342041015625,-1012.9201049804688,427.2947998046875,333.1259765625
9771,535.1665649414061,-990.4620361328124,451.667724609375,337.6549987792969
9772,524.2835083007811,-1001.8836669921876,446.5664978027344,341.5632019042969
9773,512.3718872070311,-1014.9957885742188,423.1509704589844,340.78155517578125
9774,514.1072387695311,-1008.1480102539062,432.2015380859375,332.6734619140625
9775,535.4620361328125,-990.7462768554688,452.5054626464844,334.4648742675781
9776,530.2636108398439,-993.3192749023438,446.7460021972656,346.02862548828125
9777,509.48095703125,-1012.8976440429688,427.3733215332031,340.35894775390625
9778,512.6336669921875,-1008.74267578125,436.51739501953125,334.2105407714844
9779,537.3432006835939,-990.5106201171876,458.8408508300781,339.498779296875
9780,530.1214599609375,-999.9949951171876,449.56964111328125,345.5461730957031
9781,511.111572265625,-1016.9105834960938,427.4406433105469,343.05914306640625
9782,513.4863891601561,-1010.1039428710938,429.2358093261719,328.0135498046875
9783,535.60791015625,-993.895263671875,454.6222534179688,332.8492126464844
9784,533.143310546875,-995.9409790039062,451.1703186035156,341.7801208496094
9785,516.2015380859375,-1023.4367065429688,428.9104309082031,334.82763671875
9786,520.2069702148439,-1015.6278076171876,437.9684753417969,331.2784729003906
9787,541.5431518554689,-997.4556274414062,451.6901550292969,338.137451171875
9788,539.6619262695311,-995.67919921875,448.8553161621094,342.703857421875
9789,513.2919311523439,-1018.1746826171876,425.5744323730469,333.3092346191406
9790,514.832763671875,-1010.2872314453124,431.00103759765625,332.67718505859375
9791,542.19384765625,-994.8751220703124,453.5563659667969,336.1141662597656
9792,531.9278564453125,-1007.4972534179688,451.9519348144531,341.47344970703125
9793,515.173095703125,-1019.5621948242188,427.1452026367188,337.4081726074219
9794,518.9765625,-1012.3441772460938,428.6673278808594,334.26666259765625
9795,532.4327392578125,-991.4306640625,445.1116638183594,334.09088134765625
9796,526.4675903320311,-999.3405151367188,440.6873779296875,340.2579650878906
9797,510.8011474609375,-1017.3107299804688,421.9205627441406,334.4873046875
9798,504.046875,-1018.7244262695312,423.8465881347656,330.7099914550781
9799,537.1076049804689,-991.8682250976562,453.1038513183594,336.40960693359375
9800,525.9103393554689,-994.882568359375,448.2456970214844,340.79278564453125
9801,508.0036926269531,-1009.8571166992188,432.1753540039063,340.9423828125
9802,518.1874389648439,-1010.4779663085938,439.0081481933594,337.797119140625
9803,537.8294067382811,-999.448974609375,456.8362731933594,331.9479064941406
9804,535.4134521484375,-1004.8568725585938,448.193359375,333.1334533691406
9805,516.029541015625,-1025.14208984375,427.4331665039063,328.18182373046875
9806,516.8373413085939,-1006.7680053710938,430.47369384765625,325.39935302734375
9807,540.630615234375,-992.3057861328124,453.3132629394531,334.5172119140625
9808,534.8786010742189,-990.5218505859376,449.6855773925781,340.85260009765625
9809,507.6484069824219,-1016.1326904296876,418.57708740234375,335.8785400390625
9810,516.6802978515625,-1013.686767578125,423.30804443359375,327.8190612792969
9811,535.0357055664061,-996.2962646484376,446.0279541015625,337.9915771484375
9812,522.5706176757811,-1000.118408203125,440.56396484375,340.8713073730469
9813,491.8211669921875,-1017.72216796875,417.4513854980469,333.7692565917969
9814,506.78448486328125,-1011.6036987304688,426.76373291015625,333.7168884277344
9815,528.1505126953125,-990.3460693359376,444.1729431152344,336.7835998535156
9816,528.8386840820311,-993.674560546875,441.1997375488281,340.4187927246094
9817,507.5736083984375,-1017.4005126953124,423.180908203125,336.6340026855469
9818,518.3482666015625,-1004.9129638671876,433.6563720703125,338.9901428222656
9819,536.935546875,-993.5960693359376,448.6458740234375,333.8141174316406
9820,531.89794921875,-999.9276733398438,446.0952758789063,340.9760437011719
9821,504.0431518554688,-1014.1842041015624,421.632568359375,337.37451171875
9822,515.3226928710939,-1002.171630859375,429.8902893066406,329.7787780761719
9823,533.8090209960939,-984.1340942382812,447.9764404296875,330.3771667480469
9824,524.5490112304689,-992.07763671875,442.4264221191406,337.84197998046875
9825,503.9833068847656,-1013.3052978515624,419.6092834472656,332.9950866699219
9826,513.3442993164061,-1009.7337036132812,424.1271057128906,328.1593933105469
9827,538.9812622070311,-987.627197265625,445.7773742675781,335.9383850097656
9828,526.665771484375,-988.6406860351562,444.2514953613281,340.1345520019531
9829,504.316162109375,-1006.7305908203124,419.2427978515625,333.0249938964844
9830,506.60870361328125,-1000.7130737304688,423.00885009765625,332.7893981933594
9831,534.9683837890625,-981.8751831054688,443.1856384277344,336.0094299316406
9832,529.4520263671875,-982.275390625,441.8355102539063,344.4017639160156
9833,502.8949890136719,-1005.8255004882812,421.1987609863281,339.9400634765625
9834,513.7743530273439,-1001.677978515625,428.62994384765625,334.24420166015625
9835,537.7471313476561,-987.3765869140624,451.00201416015625,337.1351623535156
9836,529.0069580078125,-984.13037109375,447.1387023925781,341.8511657714844
9837,506.851806640625,-1011.2745361328124,421.0416870117188,333.7019348144531
9838,514.0960083007811,-1001.2291870117188,424.7741088867188,326.1174011230469
9839,542.4780883789061,-985.4580078125,446.2373962402344,334.33770751953125
9840,529.4370727539061,-989.39990234375,444.69281005859375,336.51434326171875
9841,504.1702880859375,-1003.7386474609376,416.6473083496094,330.9418640136719
9842,516.7550659179689,-996.397216796875,424.2467651367188,325.5040588378906
9843,528.4085693359375,-980.3455810546876,440.9117736816406,326.3642272949219
9844,522.6903076171875,-984.1041870117188,433.4768371582031,329.78997802734375
9845,510.9918823242188,-1003.2711791992188,417.17462158203125,337.01922607421875
9846,517.8471069335939,-997.0741577148438,424.0822143554688,320.8441467285156
9847,534.9384765625,-973.673583984375,436.6333312988281,329.8498229980469
9848,528.7713623046875,-981.572265625,439.4644165039063,335.7962646484375
9849,510.0569152832031,-1004.1612548828124,417.6458435058594,330.7922668457031
9850,516.2277221679689,-998.1475219726562,424.026123046875,327.949951171875
9851,538.753173828125,-975.661376953125,449.0254821777344,334.3395690917969
9852,525.4952392578125,-982.0640869140624,440.2628784179688,339.7624206542969
9853,514.843994140625,-1003.0374145507812,422.0383605957031,339.1416015625
9854,523.2512817382811,-994.4618530273438,421.6980285644531,327.7984924316406
9855,532.1409912109375,-973.1519165039062,444.3281555175781,336.34417724609375
9856,523.3859252929689,-977.3854370117188,435.4833068847656,335.8879089355469
9857,508.2280883789063,-993.6539916992188,420.0487365722656,336.8939208984375
9858,508.11962890625,-989.525146484375,425.26214599609375,331.8824768066406
9859,531.1275024414061,-976.8768310546876,442.8658752441406,329.93023681640625
9860,525.5550537109375,-978.7766723632812,435.78997802734375,336.2207336425781
9861,510.6365966796875,-993.9868774414062,417.1502990722656,331.934814453125
9862,511.3060302734375,-994.4506225585938,418.32464599609375,322.4167785644531
9863,537.1300659179689,-968.7051391601562,447.4846496582031,333.0306091308594
9864,519.2196655273439,-976.143798828125,432.38665771484375,326.8859558105469
9865,505.6849670410156,-998.2952270507812,410.7775268554688,322.98150634765625
9866,512.7122192382811,-995.3967895507812,421.48858642578125,327.9892272949219
9867,529.8970947265625,-977.1610717773438,437.0428466796875,327.016845703125
9868,529.4894409179689,-982.318359375,428.6505126953125,330.6370849609375
9869,507.6072692871094,-995.4566650390624,413.8292846679688,327.5628662109375
9870,505.26983642578125,-988.2236938476562,416.484619140625,322.13629150390625
9871,534.72900390625,-968.9931030273438,440.0833740234375,330.1097412109375
9872,519.6871337890625,-978.2344360351562,432.7456970214844,333.20263671875
9873,504.68267822265625,-1000.1278076171876,416.28265380859375,332.802490234375
9874,509.66046142578125,-991.8401489257812,420.30303955078125,330.9699401855469
9875,536.9318237304689,-970.9042358398438,441.2838745117188,335.24462890625
9876,525.876708984375,-980.474609375,435.0793762207031,334.5115966796875
9877,502.3377380371094,-994.1738891601562,419.8991394042969,334.6163330078125
9878,505.74853515625,-992.7190551757812,421.2417602539063,326.7214050292969
9879,535.1366577148439,-975.1976318359376,443.5689697265625,331.65057373046875
9880,524.9903564453125,-981.6265258789062,435.9956665039063,334.0366516113281
9881,504.5405578613281,-995.06396484375,416.9296569824219,332.0096130371094
9882,510.1803283691406,-992.917236328125,422.9134826660156,324.9449462890625
9883,536.3184814453125,-973.4174194335938,443.1276550292969,329.6684265136719
9884,529.4782104492189,-972.0374145507812,444.1448974609375,337.3389892578125
9885,500.6847229003906,-994.1888427734376,417.72998046875,326.96075439453125
9886,521.2840576171875,-991.4474487304688,418.5228576660156,320.6328430175781
9887,538.4763793945311,-975.9418334960938,441.9570617675781,327.85833740234375
9888,529.2276611328125,-976.2896728515624,436.2275390625,333.5504455566406
9889,502.4050598144531,-997.4088745117188,411.203857421875,327.5292053222656
9890,506.3170166015625,-988.8931274414062,419.21099853515625,325.3862609863281
9891,536.453125,-970.0701904296876,441.9046936035156,329.84796142578125
9892,531.2846069335939,-972.9761352539062,439.1334533691406,336.1795959472656
9893,507.7157287597656,-997.1583251953124,423.1865234375,331.5832824707031
9894,511.57904052734375,-989.2109985351562,427.60333251953125,327.9219055175781
9895,536.94677734375,-971.30810546875,450.2970581054688,332.2414855957031
9896,529.268798828125,-971.46142578125,443.62506103515625,340.9741516113281
9897,507.8017578125,-994.0093383789062,419.80938720703125,328.6848449707031
9898,511.8296203613281,-990.1759033203124,425.9241027832031,330.7679748535156
9899,532.1036376953125,-973.32763671875,441.7775573730469,333.2587585449219
9900,528.883544921875,-983.8031005859376,431.3955993652344,327.8433837890625
9901,505.4792785644531,-1006.9007568359376,412.3407897949219,327.8919982910156
9902,518.6810913085939,-998.1119995117188,422.1954345703125,324.38397216796875
9903,537.182373046875,-978.9038696289062,442.5442199707031,331.3065185546875
9904,528.2290649414061,-979.9248657226562,430.0978393554688,333.3858947753906
9905,509.7016296386719,-998.6617431640624,408.7355346679688,325.9883728027344
9906,517.2449951171875,-991.4624633789062,414.2705993652344,323.6060485839844
9907,534.5906372070311,-977.198486328125,437.3495178222656,326.9831848144531
9908,532.5112915039061,-981.1515502929688,439.79541015625,337.99346923828125
9909,500.4678039550781,-999.031982421875,417.0942077636719,332.7426452636719
9910,510.9731750488281,-993.4857177734376,423.95318603515625,327.09539794921875
9911,533.3041381835939,-972.0075073242188,441.0968933105469,329.96014404296875
9912,525.92529296875,-980.1455078125,436.7810363769531,337.77655029296875
9913,501.5523681640625,-999.0357055664062,413.3879699707031,327.9892272949219
9914,516.2726440429689,-991.249267578125,416.6566467285156,325.502197265625
9915,534.5607299804689,-977.7669067382812,441.18292236328125,326.4895324707031
9916,526.5162353515625,-984.0537109375,431.6087646484375,331.4822998046875
9917,508.3290710449219,-1003.6619873046876,413.5450439453125,330.3902282714844
9918,513.21337890625,-997.9362182617188,417.2662353515625,322.4803466796875
9919,533.8688354492189,-970.6873168945312,444.4889831542969,328.06402587890625
9920,524.646240234375,-976.3046264648438,441.5456848144531,338.9022521972656
9921,507.2594604492188,-997.9025268554688,414.92132568359375,331.84130859375
9922,514.7243041992189,-993.2875366210938,420.6209411621094,326.8934326171875
9923,538.6484375,-979.3676147460938,445.5249328613281,331.5720520019531
9924,532.3990478515625,-981.8434448242188,439.9225769042969,339.6539611816406
9925,513.1610107421875,-1000.1315307617188,419.5438537597656,334.4068908691406
9926,515.7266235351561,-999.443359375,417.9955139160156,322.9029541015625
9927,538.0238647460939,-974.90966796875,441.60552978515625,335.5849609375
9928,535.6602783203125,-977.680908203125,438.2358703613281,342.29058837890625
9929,509.0920104980469,-1000.6550903320312,412.1500549316406,332.4322204589844
9930,512.6748657226561,-999.8547973632812,415.2018127441406,326.2613830566406
9931,528.8274536132811,-977.23583984375,440.2254943847656,328.3856506347656
9932,524.4181518554689,-982.434326171875,434.82135009765625,329.9078063964844
9933,494.0650939941406,-1000.6550903320312,411.9555969238281,325.161865234375
9934,512.1923828125,-987.27001953125,418.492919921875,328.6025695800781
9935,533.7791137695311,-971.4988403320312,440.0646667480469,326.6952209472656
9936,528.7750854492189,-976.2073974609376,429.7649841308594,327.6788024902344
9937,517.5778198242189,-995.0302734375,423.1154479980469,337.9784851074219
9938,506.2384643554688,-1001.3095703125,417.7935791015625,321.9268493652344
9939,536.3297119140625,-976.648681640625,444.0850830078125,328.2622375488281
9940,529.927001953125,-987.6477661132812,436.79974365234375,333.90948486328125
9941,513.0413208007811,-999.7986450195312,418.5452880859375,329.7619323730469
9942,513.5537109375,-1002.7232666015624,420.6059875488281,327.64141845703125
9943,532.4439697265625,-980.826171875,442.7461853027344,330.1695861816406
9944,523.0455932617189,-989.2745971679688,434.0060424804688,337.64190673828125
9945,508.8077697753906,-1012.177734375,415.0896301269531,335.4091796875
9946,514.7803955078125,-999.5069580078124,427.0423583984375,331.36260986328125
9947,531.123779296875,-982.65869140625,448.09423828125,333.6028137207031
9948,526.6807861328125,-988.2685546875,438.3966674804688,335.3493347167969
9949,502.6743469238281,-1003.52734375,418.1712951660156,338.77508544921875
9950,508.47491455078125,-998.2129516601562,426.3616943359375,329.4216003417969
9951,538.7008056640625,-980.5232543945312,446.1868896484375,332.3162841796875
9952,534.6729125976561,-984.7380981445312,436.661376953125,337.0809326171875
9953,499.88812255859375,-1007.9778442382812,410.1716613769531,333.4681701660156
9954,510.8647155761719,-1001.0029296875,416.3312683105469,327.89947509765625
9955,537.3881225585939,-985.9722900390624,439.0885620117188,336.336669921875
9956,527.3875732421875,-985.4486694335938,430.9468078613281,339.76617431640625
9957,510.243896484375,-1006.7286987304688,416.7090148925781,332.6491394042969
9958,510.8946533203125,-1006.0592651367188,416.6566467285156,325.1917724609375
9959,542.7959594726561,-980.227783203125,434.290283203125,326.171630859375
9960,533.87255859375,-986.2938842773438,428.2204284667969,331.6655578613281
9961,511.9268493652344,-1007.0316162109376,409.0609130859375,329.6160888671875
9962,509.7876281738281,-1004.70166015625,410.95703125,329.892822265625
9963,532.0625,-983.982666015625,439.877685546875,337.193115234375
9964,530.7908935546875,-991.978515625,441.0220947265625,342.8628234863281
9965,505.7896728515625,-1011.5494384765624,415.8600463867188,338.718994140625
9966,509.1032409667969,-1009.8702392578124,421.4699096679688,329.55999755859375
9967,534.609375,-991.5709228515624,445.9624938964844,335.6186218261719
9968,531.101318359375,-987.7487182617188,445.2257385253906,339.564208984375
9969,510.7899169921875,-1015.5249633789062,420.3628845214844,334.6799011230469
9970,519.1710205078125,-1005.9994506835938,428.5495300292969,330.8614807128906
9971,535.162841796875,-987.8870849609376,446.0709533691406,329.64599609375
9972,529.4071655273439,-990.8229370117188,437.49163818359375,334.5751953125
9973,512.7384033203125,-1011.6092529296876,414.3827819824219,331.2878112792969
9974,518.0228881835939,-1003.396484375,417.3896789550781,327.64141845703125
9975,548.6863403320311,-981.084228515625,446.8413696289063,336.5947265625
9976,527.94482421875,-990.1422729492188,434.4473571777344,334.85943603515625
9977,514.8364868164061,-1008.5574951171876,418.7173156738281,337.50726318359375
9978,517.09912109375,-1006.3995971679688,421.7466430664063,334.13763427734375
9979,539.51611328125,-977.4303588867188,447.9521179199219,336.6919860839844
9980,528.7003173828125,-989.9552612304688,445.3641052246094,342.95257568359375
9981,509.81005859375,-1011.4447021484376,424.36456298828125,343.6706237792969
9982,518.6287841796875,-1008.0675659179688,427.423828125,334.45550537109375
9983,540.1630859375,-979.6668090820312,451.1385192871094,341.0152893066406
9984,526.3516235351561,-992.2141723632812,440.4835510253906,341.11627197265625
9985,504.75372314453125,-1010.7864990234376,414.9288024902344,336.9537658691406
9986,515.7527465820311,-1004.323974609375,428.0035095214844,336.4488830566406
9987,533.5584106445311,-986.8399047851562,445.2631530761719,337.4736022949219
9988,533.0161743164061,-982.6325073242188,449.866943359375,346.23992919921875
9989,505.47552490234375,-1015.0200805664062,417.7599182128906,341.34442138671875
9990,516.1978149414061,-1009.230712890625,426.5972900390625,337.80645751953125
9991,537.9303588867189,-995.0115966796876,453.1206665039063,340.7684631347656
9992,523.7561645507811,-1002.7569580078124,439.1671142578125,344.11566162109375
9993,511.7398681640625,-1016.1532592773438,417.43829345703125,337.3651428222656
9994,516.8971557617189,-1010.98095703125,419.0501708984375,331.2990417480469
9995,536.3297119140625,-985.90869140625,436.3883666992188,329.47021484375
9996,531.8193969726561,-987.3223876953124,430.8458251953125,334.3246154785156
9997,509.2416076660156,-1004.7764892578124,410.1828918457031,332.357421875
9998,512.3045654296875,-1000.6251831054688,414.8951416015625,329.19720458984375
9999,537.3432006835939,-982.905517578125,442.1290893554688,329.7058410644531
10000,520.1583862304689,-992.4534912109376,434.05841064453125,338.1094055175781
10001,503.2876892089844,-1011.2951049804688,415.0484924316406,338.5918273925781
10002,509.1929931640625,-1005.4833374023438,423.0069885253906,337.2005920410156
10003,536.161376953125,-990.2357788085938,444.2720642089844,337.4848327636719
10004,524.010498046875,-994.8994140625,436.3509521484375,339.2650146484375
10005,508.6020812988281,-1010.5546264648438,420.2843322753906,343.5584411621094
10006,516.7962036132811,-1007.7422485351562,427.75665283203125,338.9546203613281
10007,533.7341918945311,-992.0608520507812,440.5545959472656,336.2357177734375
10008,529.470703125,-992.6068725585938,441.66534423828125,349.50860595703125
10009,510.04193115234375,-1014.2272338867188,414.72686767578125,336.07489013671875
10010,514.5485229492189,-1005.3748779296876,419.031494140625,333.72998046875
10011,532.814208984375,-983.88916015625,439.1895446777344,334.2647705078125
10012,531.0452270507811,-992.4086303710938,434.59320068359375,341.5314025878906
10013,509.2378540039063,-1013.1651000976562,410.0669555664063,334.26104736328125
10014,515.947265625,-1008.7706909179688,416.6304626464844,322.4691467285156
10015,541.288818359375,-983.3655395507812,443.7671813964844,335.5064392089844
10016,526.0225219726561,-989.79443359375,437.6487121582031,338.5993347167969
10017,509.4061584472656,-1007.364501953125,416.2078552246094,341.2247314453125
10018,509.5146179199219,-1010.722900390625,415.5197143554688,324.3540344238281
10019,534.1717529296875,-985.4674072265624,434.6268615722656,332.1143493652344
10020,527.017333984375,-989.1773681640624,429.8921508789063,341.01904296875
10021,509.5445251464844,-1007.7459716796876,406.27093505859375,336.5162048339844
10022,510.8609924316406,-1003.467529296875,414.9176025390625,326.62042236328125
10023,528.412353515625,-982.4866943359376,435.6852416992188,336.0973205566406
10024,522.5032958984375,-992.6068725585938,424.8956298828125,337.4586486816406
10025,502.0759582519531,-1006.7735595703124,403.51837158203125,332.9221496582031
10026,510.00830078125,-1004.0733642578124,417.25128173828125,330.0050354003906
10027,531.3294677734375,-981.3123779296876,432.0538024902344,333.5953369140625
10028,523.4569702148439,-984.640869140625,424.68994140625,336.4077453613281
10029,505.0043029785156,-1003.4413452148438,409.4087219238281,335.8131103515625
10030,504.0880126953125,-1004.0584106445312,414.8839416503906,325.4685363769531
10031,532.0363159179689,-980.4447021484376,440.4947814941406,336.16839599609375
10032,521.3102416992189,-988.9791259765624,430.91314697265625,338.5993347167969
10033,503.4372863769531,-1006.8858032226562,412.8943176269531,337.87005615234375
10034,513.54248046875,-1000.4232177734376,420.4376831054688,334.56396484375
10035,537.8480834960939,-978.2232055664062,448.692626953125,337.61199951171875
10036,531.3930053710939,-985.0634765625,443.8905944824219,340.772216796875
10037,504.8696594238281,-1004.9447631835938,414.8465270996094,337.4923095703125
10038,513.329345703125,-992.9583740234376,417.9095153808594,326.2613830566406
10039,537.6199951171875,-969.5054931640624,441.2726745605469,332.0283203125
10040,527.2417602539061,-971.0089111328124,432.7756042480469,334.72479248046875
10041,511.0779113769531,-990.4114990234376,415.8488159179688,338.5619201660156
10042,514.9561767578125,-994.0691528320312,418.64251708984375,327.17767333984375
10043,534.5869140625,-959.2955322265624,442.248779296875,333.8309631347656
10044,520.3640747070311,-965.6945190429688,435.8722534179688,332.5556335449219
10045,504.0094909667969,-978.46630859375,415.1419982910156,338.5993347167969
10046,505.7784729003906,-978.2942504882812,414.6857299804688,326.4072570800781
10047,536.041748046875,-952.7694091796876,437.2148742675781,331.90863037109375
10048,525.854248046875,-962.98681640625,437.2896728515625,342.0063781738281
10049,510.9806518554688,-984.5660400390624,414.255615234375,341.359375
10050,513.2320556640625,-979.2479248046876,414.5174255371094,331.4710693359375
10051,542.8483276367189,-958.4989624023438,441.7812805175781,331.8114013671875
10052,528.1168823242189,-961.290771484375,431.0982666015625,331.6767578125
10053,504.8734130859375,-977.4920654296876,411.807861328125,332.63043212890625
10054,508.03363037109375,-968.5537109375,412.5782775878906,327.1178283691406
10055,532.70947265625,-947.4120483398438,435.1149291992188,331.3813171386719
10056,522.9183959960939,-952.3262329101562,432.841064453125,339.7100830078125
10057,498.7736206054688,-973.553955078125,411.7293395996094,334.37322998046875
10058,507.1996154785156,-970.3563232421876,416.2284240722656,329.2757568359375
10059,535.8397827148439,-947.4082641601562,436.9437255859375,335.84674072265625
10060,525.6859741210939,-957.6256713867188,434.5127868652344,331.96099853515625
10061,514.7392578125,-976.0260009765624,418.68927001953125,335.2633361816406
10062,521.16064453125,-967.828125,424.1308288574219,332.69775390625
10063,539.7030639648439,-946.7799682617188,439.86083984375,335.1137390136719
10064,540.6006469726561,-951.7989501953124,439.76361083984375,340.81707763671875
10065,516.3735961914061,-974.27197265625,422.6049499511719,341.9839172363281
10066,517.42822265625,-967.66357421875,426.3785095214844,340.5627746582031
10067,547.11181640625,-952.4309692382812,442.75927734375,340.7385559082031
10068,537.80322265625,-954.8057861328124,439.7299499511719,343.988525390625
10069,511.91937255859375,-978.3858642578124,417.5897521972656,337.77655029296875
10070,520.0012817382811,-976.8038940429688,420.48443603515625,333.18768310546875
10071,541.7899780273439,-957.6593627929688,438.0544738769531,330.06488037109375
10072,535.6976318359375,-967.1026000976562,437.69171142578125,338.5320129394531
10073,514.4288330078125,-983.9246826171876,416.9315185546875,332.3611755371094
10074,519.3729858398439,-980.0164794921876,414.0368347167969,329.2757568359375
10075,537.4666137695311,-959.56298828125,430.1632995605469,325.5807189941406
10076,534.657958984375,-961.3768310546876,427.1676330566406,336.9911804199219
10077,509.6305541992188,-983.9583129882812,411.8377685546875,338.202880859375
10078,513.9912719726561,-982.3875732421876,414.9119873046875,325.2478942871094
10079,541.9096069335939,-960.0640869140624,444.191650390625,335.8729248046875
10080,534.7776489257811,-970.4236450195312,442.29925537109375,341.9502868652344
10081,511.6800231933594,-985.66748046875,420.9668884277344,336.8041687011719
10082,517.2599487304689,-981.05615234375,427.7398376464844,335.5363464355469
10083,546.348876953125,-960.5652465820312,449.1395568847656,337.1968688964844
10084,533.659423828125,-964.1817626953124,444.1991271972656,340.7796936035156
10085,514.39892578125,-981.9874267578124,424.9237060546875,344.4335632324219
10086,518.3557739257811,-982.0136108398438,422.3394165039063,329.8629150390625
10087,544.2321166992189,-962.861572265625,446.99658203125,332.0245666503906
10088,541.18408203125,-971.7662353515624,438.5406799316406,334.93048095703125
10089,519.563720703125,-988.861328125,419.5943298339844,330.936279296875
10090,519.0289306640625,-981.396484375,422.0738830566406,327.5740966796875
10091,539.2281494140625,-954.44677734375,447.3780517578125,334.8669128417969
10092,525.854248046875,-962.9774780273438,429.9576110839844,336.07489013671875
10093,507.5661315917969,-973.8980102539062,411.10101318359375,339.73626708984375
10094,509.2939758300781,-964.26025390625,416.7893981933594,331.6917419433594
10095,534.3699951171875,-956.2120361328124,435.2308654785156,334.08526611328125
10096,527.731689453125,-960.7073974609376,428.73089599609375,336.5162048339844
10097,509.0209655761719,-983.8461303710938,406.9085998535156,336.8827209472656
10098,518.7260131835939,-979.9192504882812,417.2943115234375,328.4903869628906
10099,544.822998046875,-965.210205078125,445.1939392089844,334.2872314453125
10100,538.8653564453125,-968.9949951171876,448.2045593261719,338.73394775390625
10101,520.1696166992189,-987.4027709960938,426.1466369628906,333.6289978027344
10102,526.1796264648439,-979.8818359375,427.3995056152344,329.7320251464844
10103,551.4575805664061,-955.8567504882812,446.0765686035156,328.049072265625
10104,539.8975830078125,-956.97119140625,442.43389892578125,342.4701232910156
10105,510.3860168457031,-980.8878784179688,414.53424072265625,332.9745178222656
10106,514.59716796875,-976.8151245117188,416.9389953613281,329.6497497558594
10107,536.2362060546875,-959.16650390625,440.7023315429688,336.9425354003906
10108,525.8692016601561,-956.2943115234376,433.25244140625,343.93243408203125
10109,501.6683044433594,-977.065673828125,410.293212890625,337.6344299316406
10110,508.6357421875,-965.3934936523438,421.3932189941406,328.9316711425781
10111,544.0526123046875,-949.5587158203124,446.6076354980469,336.2020568847656
10112,531.0339965820311,-956.9562377929688,450.2091674804688,346.1875915527344
10113,511.7099304199219,-980.4428100585938,429.3255615234375,344.4859313964844
10114,514.8028564453125,-979.6686401367188,432.0220336914063,332.4584045410156
10115,541.8759765625,-957.3078002929688,449.7379150390625,336.2431945800781
10116,533.6332397460939,-963.3140869140624,444.4945983886719,335.7420349121094
10117,516.3175048828125,-984.5791625976562,421.6662292480469,330.1845397949219
10118,523.4083251953125,-978.70751953125,429.8042602539063,326.6540832519531
10119,546.7378540039061,-955.5126342773438,442.6022033691406,325.6443176269531
10120,536.4905395507811,-957.2218017578124,439.3970947265625,338.0084228515625
10121,513.6734008789061,-977.2788696289062,417.2456665039063,331.06341552734375
10122,518.2659912109375,-974.82177734375,421.4717712402344,331.6767578125
10123,538.1959228515625,-951.4623413085938,444.48712158203125,333.28118896484375
10124,524.3956909179689,-961.6273803710938,432.3922729492188,336.9761962890625
10125,512.9515991210939,-977.49951171875,417.3728332519531,339.1827392578125
10126,506.27960205078125,-971.654052734375,414.50433349609375,325.68170166015625
10127,528.1243896484375,-950.1945190429688,434.6361999511719,332.4060363769531
10128,529.3435668945311,-957.8014526367188,431.2104797363281,336.0412292480469
10129,510.70391845703125,-982.23046875,413.3000793457031,331.418701171875
10130,512.3120727539061,-977.5668334960938,416.04144287109375,326.3175048828125
10131,538.3006591796875,-961.2496337890624,437.9198303222656,329.4814453125
10132,536.2100219726561,-960.8382568359376,439.0717468261719,340.13641357421875
10133,513.318115234375,-981.20947265625,417.1708679199219,333.33355712890625
10134,518.6212768554689,-979.5901489257812,421.1688232421875,328.9765625
10135,547.5157470703125,-961.93408203125,446.3757629394531,334.2984313964844
10136,537.6311645507811,-967.6000366210938,443.5147399902344,341.1873474121094
10137,511.5715637207031,-986.3443603515624,422.99017333984375,340.4842224121094
10138,516.7438354492189,-984.8446655273438,423.83538818359375,331.5234375
10139,544.4864501953125,-963.1495361328124,451.41339111328125,339.51934814453125
10140,539.3552856445311,-968.0001831054688,453.5414123535156,347.6311950683594
10141,505.9093627929688,-989.7926025390624,422.8480529785156,333.9431457519531
10142,510.43463134765625,-980.9215087890624,420.3497924804688,321.089111328125
10143,534.2390747070311,-966.1975708007812,435.4178466796875,324.5709533691406
10144,535.25634765625,-971.8036499023438,434.8232116699219,333.83843994140625
10145,512.1961059570311,-994.7030639648438,410.5774230957031,329.4216003417969
10146,518.2958984375,-989.4223022460938,416.9315185546875,318.6955871582031
10147,538.8989868164061,-968.789306640625,438.41351318359375,323.68084716796875
10148,535.5630493164061,-975.6968994140624,443.675537109375,336.28057861328125
10149,515.3712768554689,-1000.1483764648438,425.3537902832031,338.81622314453125
10150,521.747802734375,-997.4369506835938,434.7521362304688,335.5251159667969
10151,548.5404663085939,-983.25146484375,457.8049011230469,342.95257568359375
10152,538.6259765625,-987.5748291015624,456.7016296386719,349.400146484375
10153,510.6253662109375,-1012.0487060546876,428.9927062988281,346.370849609375
10154,518.2061767578125,-1003.7872924804688,441.3381042480469,344.75518798828125
10155,539.4375610351561,-981.0337524414062,461.1221923828125,344.7103271484375
10156,536.11279296875,-986.32568359375,448.3392028808594,343.1507873535156
10157,512.8656005859375,-1006.85400390625,430.0810241699219,339.4744567871094
10158,515.2030029296875,-1010.1339111328124,424.4861145019531,327.439453125
10159,542.8521118164061,-983.7750854492188,450.84869384765625,334.0104675292969
10160,539.0785522460939,-994.2318115234376,449.0610046386719,338.9583435058594
10161,519.4178466796875,-1007.1906127929688,430.2642822265625,341.7109069824219
10162,526.4152221679689,-1007.53466796875,430.5709533691406,336.0262756347656
10163,539.6207885742189,-989.9795532226562,451.821044921875,335.9327697753906
10164,535.7163696289061,-994.77783203125,450.93096923828125,351.2551574707031
10165,510.0755920410156,-1020.916015625,422.91162109375,342.4102783203125
10166,525.6485595703125,-1015.5604858398438,442.172119140625,344.6242980957031
10167,543.4878540039061,-996.2738037109376,457.4832763671875,344.2129211425781
10168,537.578857421875,-998.4130249023438,456.27154541015625,353.3607177734375
10169,512.6336669921875,-1016.2523803710938,431.9322509765625,342.57110595703125
10170,521.7141723632811,-1013.6531372070312,433.6264343261719,329.0401306152344
10171,548.3273315429689,-992.1262817382812,451.8958435058594,332.6865539550781
10172,538.2632446289061,-998.1886596679688,442.8752136230469,334.5976257324219
10173,519.1972045898439,-1012.29931640625,423.6147155761719,334.2947082519531
10174,523.37841796875,-1011.5101928710938,428.3045654296875,329.0513610839844
10175,545.8851318359375,-995.3239135742188,453.6349182128906,339.235107421875
10176,538.730712890625,-1001.6704711914062,447.18731689453125,345.70513916015625
10177,515.2179565429689,-1012.9837036132812,425.6754150390625,342.6047668457031
10178,523.976806640625,-1013.1968383789062,432.4371643066406,341.4341735839844
10179,550.5263671875,-998.6336669921876,456.85870361328125,343.3153381347656
10180,545.152099609375,-999.2882080078124,457.5057067871094,352.7436218261719
10181,515.6630249023439,-1022.2698364257812,434.2809143066406,345.6452941894531
10182,529.5903930664061,-1018.2307739257812,436.3603210449219,338.1094055175781
10183,549.8270263671875,-998.4579467773438,459.3569641113281,343.45745849609375
10184,547.8448486328125,-1002.347412109375,454.1136169433594,351.46832275390625
10185,512.4429321289061,-1022.052978515625,419.76263427734375,337.94110107421875
10186,523.1390991210939,-1019.449951171875,426.4420776367188,330.9026184082031
10187,539.609619140625,-992.1636962890624,444.378662109375,336.2207336425781
10188,536.2998046875,-1002.46337890625,442.1833190917969,342.6496276855469
10189,515.5059204101561,-1026.37255859375,425.2677612304688,344.1942138671875
10190,514.8776245117189,-1026.0958251953123,427.51544189453125,331.70294189453125
10191,540.7203369140625,-998.9104614257812,449.37890625,346.1053161621094
10192,538.027587890625,-1002.4371948242188,451.5443115234375,354.4340515136719
10193,515.4049682617189,-1029.5589599609377,423.9176635742188,338.25152587890625
10194,522.3836059570311,-1023.238525390625,432.8111572265625,335.52886962890625
10195,549.494140625,-1004.905517578125,455.2991638183594,339.2874755859375
10196,543.682373046875,-1005.9115600585938,448.1484680175781,341.34814453125
10197,517.532958984375,-1025.026123046875,426.53558349609375,342.9076843261719
10198,523.3148803710939,-1023.9939575195312,433.6825256347656,334.1039733886719
10199,549.3782348632811,-1005.6834106445312,450.74395751953125,337.38385009765625
10200,538.9476318359375,-1013.1557006835938,443.2005920410156,339.927001953125
10201,512.5177612304689,-1029.51025390625,417.81787109375,336.4825439453125
10202,515.2890014648439,-1027.5169677734377,419.8898010253906,331.3401794433594
10203,534.4036254882811,-1000.4662475585938,446.5253601074219,333.2101135253906
10204,538.96630859375,-1004.4754028320312,442.1197509765625,343.203125
10205,511.4331970214844,-1024.48388671875,422.7433166503906,343.1358337402344
10206,519.245849609375,-1028.0555419921877,429.4938659667969,338.37493896484375
10207,540.8848876953125,-1009.614013671875,446.9479675292969,341.7520446777344
10208,535.3199462890625,-1014.1991577148438,444.7264709472656,347.36566162109375
10209,511.5005187988281,-1031.185791015625,425.81378173828125,344.740234375
10210,521.18310546875,-1020.07080078125,426.4383544921875,338.3076171875
10211,549.0341186523439,-1005.0962524414062,448.9226379394531,336.7742614746094
10212,545.8739013671875,-1010.2909545898438,447.1910705566406,344.3101501464844
10213,523.3859252929689,-1033.3026123046877,423.7493591308594,338.6441955566406
10214,527.2679443359375,-1021.6602783203124,426.2962341308594,329.08502197265625
10215,546.677978515625,-1002.9345703125,451.2563171386719,330.3565979003906
10216,542.661376953125,-1013.5633544921876,440.3470458984375,336.4638366699219
10217,523.4158325195311,-1025.4898681640623,418.2218017578125,337.6231994628906
10218,517.47314453125,-1025.037353515625,416.5388488769531,324.140869140625
10219,541.546875,-1005.5225830078124,439.1128845214844,334.0216979980469
10220,542.4182739257811,-1015.6390380859376,442.1870727539063,344.5794372558594
10221,519.8516845703125,-1033.9010009765623,425.8511962890625,349.1196594238281
10222,520.9400024414061,-1026.6942138671877,421.5390930175781,335.5438232421875
10223,541.816162109375,-1005.0962524414062,448.4327087402344,343.2068786621094
10224,537.7845458984375,-1004.7970581054688,448.791748046875,351.430908203125
10225,518.037841796875,-1030.460205078125,427.4780578613281,344.8935852050781
10226,520.4351196289061,-1018.0101318359376,436.1882629394531,342.3766174316406
10227,541.6590576171875,-1000.4437866210938,448.2120361328125,334.2872314453125
10228,534.0632934570311,-1004.1238403320312,444.7115173339844,335.1324462890625
10229,510.17657470703125,-1016.7423095703124,420.4245910644531,332.286376953125
10230,520.0087890625,-1013.7241821289062,430.0099487304688,335.5101623535156
10231,531.980224609375,-996.6627807617188,438.2452087402344,326.97198486328125
10232,531.3070068359375,-993.5698852539062,433.170166015625,334.93048095703125
10233,514.294189453125,-1014.80126953125,414.2238464355469,335.1698303222656
10234,515.9434814453125,-1020.3139038085938,411.92755126953125,330.233154296875
10235,540.6867065429689,-995.6642456054688,437.85626220703125,330.50244140625
10236,537.062744140625,-1007.3850708007812,432.5194396972656,334.7584533691406
10237,524.5938720703125,-1019.2330932617188,419.2801818847656,340.60015869140625
10238,524.2199096679689,-1026.2939453125,419.5831298828125,333.0380859375
10239,535.9669189453125,-1010.2722778320312,441.0987548828125,334.3545227050781
10240,533.3864135742189,-1008.263916015625,439.73370361328125,342.02508544921875
10241,514.5709838867189,-1019.7977905273438,423.9139099121094,339.68389892578125
10242,518.2622680664061,-1018.0101318359376,421.6849365234375,333.9356689453125
10243,541.782470703125,-1007.00732421875,444.4833679199219,338.6853332519531
10244,537.051513671875,-1004.2697143554688,448.3279724121094,345.9070739746094
10245,514.72802734375,-1023.5526733398438,425.6529846191406,342.76556396484375
10246,508.2168884277344,-1016.8806762695312,425.2191467285156,333.2063903808594
10247,538.1510620117189,-999.1124267578124,447.6884765625,333.307373046875
10248,535.2114868164061,-1007.5197143554688,442.6022033691406,346.6475830078125
10249,506.2122802734375,-1027.991943359375,421.5914306640625,343.3377685546875
10250,512.4878540039061,-1020.3624877929688,430.2754821777344,342.2793884277344
10251,536.3259887695311,-1005.7955932617188,456.409912109375,348.5025634765625
10252,526.0374755859375,-1010.657470703125,448.7057189941406,352.87078857421875
10253,501.769287109375,-1036.223388671875,427.5472412109375,349.3926696777344
10254,522.9109497070311,-1024.510009765625,439.5710144042969,348.02386474609375
10255,538.730712890625,-1017.3780517578124,446.62445068359375,331.68798828125
10256,543.4168090820311,-1026.2752685546877,447.43975830078125,356.62188720703125
10257,520.2742919921875,-1044.4212646484377,432.82421875,348.48388671875
10258,526.7144165039061,-1035.90185546875,428.515869140625,333.77484130859375
10259,550.444091796875,-1015.093017578125,456.8343811035156,341.5987243652344
10260,537.062744140625,-1029.51025390625,448.09423828125,345.1665954589844
10261,516.7363891601561,-1047.7310791015623,427.75665283203125,340.2373962402344
10262,520.6520385742189,-1053.2960205078123,424.2561340332031,332.69403076171875
10263,543.989013671875,-1040.692626953125,450.8131408691406,335.080078125
10264,533.8613891601561,-1044.7467041015623,438.9988098144531,340.8357849121094
10265,518.3594970703125,-1063.8201904296877,413.43658447265625,338.29266357421875
10266,526.6096801757811,-1062.15966796875,419.6934509277344,336.6545715332031
10267,545.41015625,-1044.9036865234377,439.6158752441406,332.0208435058594
10268,536.1165161132811,-1048.4267578125,442.929443359375,341.53887939453125
10269,510.4495849609375,-1062.8851318359377,411.1103820800781,341.277099609375
10270,513.8416748046875,-1068.02001953125,415.5945129394531,331.8525390625
10271,541.9545288085939,-1045.939697265625,442.01690673828125,334.98284912109375
10272,543.4990844726561,-1050.3004150390623,441.2913513183594,342.7319030761719
10273,517.8471069335939,-1074.0787353515623,423.5530090332031,344.6617126464844
10274,525.7532958984375,-1070.989501953125,434.8138732910156,341.2247314453125
10275,546.4461059570311,-1053.4718017578123,460.383544921875,347.8929748535156
10276,537.4367065429689,-1063.2105712890623,451.7256774902344,350.0509033203125
10277,516.4371948242189,-1082.1531982421877,430.1651611328125,349.7442321777344
10278,518.0341186523439,-1081.913818359375,432.3529968261719,335.1847839355469
10279,541.629150390625,-1065.705078125,456.5464172363281,336.3965148925781
10280,536.722412109375,-1063.52099609375,450.9066467285156,348.1136169433594
10281,516.8037109375,-1083.63037109375,429.3947448730469,344.2690124511719
10282,523.2662353515625,-1083.088134765625,434.0808410644531,340.3608093261719
10283,556.79443359375,-1059.496826171875,459.2653198242188,348.1846923828125
10284,538.8616333007811,-1067.444091796875,450.0240173339844,349.1346130371094
10285,518.9204711914061,-1088.357666015625,428.95343017578125,348.63720703125
10286,528.214111328125,-1086.951416015625,433.9948120117188,340.2486267089844
10287,546.0908203125,-1063.6593017578123,461.1950988769531,340.2486267089844
10288,539.3477783203125,-1069.1943359375,451.3554382324219,347.029052734375
10289,513.6285400390625,-1089.8199462890623,427.5247802734375,344.1867370605469
10290,526.1497192382811,-1080.6085205078123,430.8794860839844,339.29119873046875
10291,548.80224609375,-1063.3787841796877,461.9468383789063,349.1495666503906
10292,532.3616943359375,-1074.97998046875,452.8139953613281,350.85498046875
10293,515.3189697265625,-1089.7003173828123,434.54083251953125,354.2171325683594
10294,520.17333984375,-1089.300048828125,441.0295715332031,349.5235595703125
10295,545.2643432617189,-1065.6864013671877,465.1855773925781,355.7430114746094
10296,534.22412109375,-1073.65234375,460.5069580078125,357.23150634765625
10297,513.460205078125,-1092.09375,440.02728271484375,354.6285400390625
10298,527.7877807617189,-1092.090087890625,441.1791687011719,354.30316162109375
10299,547.0968627929689,-1074.063720703125,462.2834167480469,349.29168701171875
10300,543.4354858398439,-1077.796142578125,455.6039733886719,358.32354736328125
10301,519.15234375,-1094.67431640625,433.84521484375,349.6095886230469
10302,530.114013671875,-1091.5814208984377,436.13031005859375,339.93072509765625
10303,549.5577392578125,-1073.8319091796877,456.80072021484375,344.7327575683594
10304,538.28564453125,-1073.125,452.7466735839844,356.24041748046875
10305,514.6158447265625,-1092.692138671875,424.55157470703125,348.07623291015625
10306,524.4779663085939,-1081.91748046875,429.8360595703125,345.9295349121094
10307,547.0333251953125,-1062.6832275390623,448.2438354492188,346.6288757324219
10308,541.0756225585939,-1071.1016845703123,445.629638671875,350.92230224609375
10309,521.9161376953125,-1090.9830322265623,420.4189758300781,345.1404113769531
10310,527.346435546875,-1092.9989013671877,431.47412109375,344.38494873046875
10311,548.6077880859375,-1071.3597412109377,451.1086120605469,352.8446044921875
10312,543.8805541992189,-1074.074951171875,449.9941101074219,359.0266418457031
10313,516.1492309570311,-1089.9283447265623,437.52154541015625,358.6825866699219
10314,522.3873291015625,-1084.767333984375,439.29052734375,351.5879821777344
10315,549.3445434570311,-1066.587646484375,463.9289855957031,353.89178466796875
10316,545.0399169921875,-1070.750244140625,459.1680908203125,357.42596435546875
10317,511.87451171875,-1097.632568359375,432.4577331542969,352.9081726074219
10318,516.007080078125,-1084.7635498046877,437.0203857421875,341.0152893066406
10319,542.6651000976561,-1062.66455078125,463.1922302246094,349.8938293457031
10320,543.3345336914061,-1071.49072265625,455.992919921875,356.1506652832031
10321,527.017333984375,-1098.948974609375,432.34552001953125,355.17828369140625
10322,523.9468994140625,-1095.5157470703123,438.27325439453125,351.45709228515625
10323,552.6057739257811,-1072.6724853515623,456.77081298828125,351.0270080566406
10324,539.8265380859375,-1078.20751953125,452.95611572265625,362.3551635742188
10325,520.7567749023439,-1084.778564453125,436.0330810546875,360.0588684082031
10326,525.2147216796875,-1082.9871826171877,430.6999816894531,342.02880859375
10327,551.7380981445311,-1060.56640625,460.49200439453125,349.5684509277344
10328,543.2933959960939,-1064.523193359375,454.05938720703125,355.2082214355469
10329,523.7786254882811,-1086.009033203125,433.6769409179688,353.2073669433594
10330,522.955810546875,-1075.17822265625,433.28424072265625,350.5221252441406
10331,544.318115234375,-1056.8602294921877,451.4451904296875,350.2079772949219
10332,535.9108276367189,-1052.6715087890623,456.3818664550781,358.1777038574219
10333,517.4693603515625,-1072.044189453125,436.9530944824219,352.8258972167969
10334,517.60400390625,-1068.0723876953123,438.3929443359375,345.8472595214844
10335,543.1886596679689,-1046.2613525390623,457.6197814941406,345.4134216308594
10336,537.545166015625,-1049.462646484375,455.8096618652344,356.83880615234375
10337,509.34259033203125,-1071.988037109375,427.6220397949219,351.1317138671875
10338,518.6399536132811,-1070.2303466796877,432.8541564941406,346.75604248046875
10339,542.9942016601561,-1053.438232421875,452.36895751953125,352.35467529296875
10340,543.6075439453125,-1050.5921630859377,453.6255493164063,357.8523254394531
10341,512.8656005859375,-1075.832763671875,421.9186706542969,349.75543212890625
10342,516.298828125,-1068.4837646484377,425.6697998046875,343.1133728027344
10343,543.3270263671875,-1051.987060546875,445.5922546386719,345.5779724121094
10344,537.80322265625,-1056.8115234375,442.5442199707031,350.4136657714844
10345,515.8163452148439,-1073.614990234375,424.89190673828125,351.96197509765625
10346,526.1197509765625,-1068.992431640625,430.7448425292969,344.59063720703125
10347,543.330810546875,-1045.857421875,457.6534423828125,349.5385437011719
10348,534.77392578125,-1052.1142578125,447.48089599609375,350.48846435546875
10349,513.5238037109375,-1067.971435546875,425.4940185546875,356.9136047363281
10350,512.989013671875,-1064.2315673828123,439.4625549316406,348.1248474121094
10351,547.3474731445311,-1039.529541015625,463.6036071777344,356.031005859375
10352,526.1197509765625,-1055.304443359375,446.6282043457031,351.7301025390625
10353,522.9221801757811,-1077.160400390625,437.0578002929688,357.2240295410156
10354,537.4329833984375,-1080.387939453125,450.2222595214844,356.5994567871094
10355,539.3515625,-1041.12646484375,451.6284484863281,341.3967590332031
10356,531.4566040039061,-1027.816162109375,448.6851501464844,351.6964416503906
10357,509.140625,-1051.3101806640623,426.4103088378906,349.5123596191406
10358,513.8042602539061,-1039.36865234375,423.9681396484375,335.80560302734375
10359,534.4036254882811,-1010.4180908203124,446.8563232421875,347.0365295410156
10360,520.8091430664061,-1008.8399047851562,442.6452026367188,349.64324951171875
10361,506.5600891113281,-1027.397216796875,422.7190246582031,349.0411376953125
10362,511.4930419921875,-1022.6363525390624,429.5742492675781,341.8605041503906
10363,530.398193359375,-1002.4671020507812,448.5542602539063,339.1304016113281
10364,526.9911499023439,-1000.20068359375,444.3580932617188,353.1549987792969
10365,498.4445190429688,-1029.716064453125,413.2907409667969,345.7986145019531
10366,513.1722412109375,-1021.5518188476562,425.37060546875,345.1927795410156
10367,534.6766967773439,-1002.2015380859376,452.2006530761719,347.8667907714844
10368,527.4437255859375,-1004.5277709960938,445.0125732421875,347.1973571777344
10369,509.92974853515625,-1026.888671875,427.27423095703125,348.5212707519531
10370,512.6336669921875,-1028.0255126953123,429.5705261230469,342.440185546875
10371,537.8705444335939,-1008.4060668945312,450.4241943359375,339.2799987792969
10372,537.1636962890625,-1016.4132080078124,448.6402587890625,342.60101318359375
10373,512.5364379882811,-1032.2928466796877,430.898193359375,344.33258056640625
10374,517.390869140625,-1022.195068359375,435.8946838378906,342.1036071777344
10375,539.246826171875,-1005.9302368164062,455.3645935058594,346.0491943359375
10376,532.8665771484375,-1012.9500122070312,448.2064514160156,349.31787109375
10377,511.6837768554688,-1031.219482421875,430.5054931640625,350.1668395996094
10378,520.34912109375,-1033.336181640625,433.0972595214844,342.53369140625
10379,544.9240112304689,-1010.1376342773438,459.4336242675781,346.16888427734375
10380,540.87744140625,-1020.7327880859376,450.7645263671875,350.1967468261719
10381,513.295654296875,-1033.8934326171877,423.4034118652344,350.0845642089844
10382,520.0648803710939,-1031.118408203125,431.02532958984375,342.4738464355469
10383,541.1878051757811,-1013.697998046875,445.6632995605469,342.3092956542969
10384,535.3199462890625,-1018.5524291992188,442.68634033203125,349.5273132324219
10385,512.274658203125,-1033.358642578125,427.2143859863281,348.0986633300781
10386,524.339599609375,-1029.3382568359377,424.36083984375,342.2943420410156
10387,537.0963745117189,-1009.6776123046876,441.6242065429688,339.0107116699219
10388,530.5814819335939,-1011.009033203125,438.80059814453125,346.3371887207031
10389,514.22314453125,-1027.2701416015623,418.1114501953125,344.9234924316406
10390,517.5591430664061,-1025.2393798828123,423.4595336914063,335.84674072265625
10391,541.4458618164061,-1006.7567749023438,450.0053405761719,344.72900390625
10392,534.4635009765625,-1012.5947265625,443.40814208984375,350.54083251953125
10393,515.0122680664061,-1035.6773681640623,421.71673583984375,349.0111999511719
10394,520.2294311523439,-1031.26806640625,428.9721374511719,342.8927307128906
10395,539.4562377929689,-1012.8004150390624,445.5211791992188,339.8522033691406
10396,537.7545776367189,-1019.2630004882812,440.0048522949219,348.2781982421875
10397,516.46337890625,-1033.897216796875,418.8706665039063,347.1337890625
10398,520.8278198242189,-1028.332275390625,427.1882019042969,340.1214599609375
10399,537.3020629882811,-1011.7271118164062,444.5039367675781,337.71295166015625
10400,532.7655639648439,-1015.6689453125,440.3638610839844,347.545166015625
10401,510.3972473144531,-1031.8028564453123,423.1491088867188,347.2497253417969
10402,511.3546447753906,-1027.1204833984377,421.6456604003906,337.1445007324219
10403,537.9116821289061,-1003.0243530273438,451.49755859375,341.3518981933594
10404,537.2459716796875,-1011.0352172851562,441.1380310058594,347.8929748535156
10405,511.6388854980469,-1030.8978271484377,417.6252746582031,339.0294189453125
10406,510.9170837402344,-1027.8797607421877,423.3884582519531,332.1629638671875
10407,545.3578491210939,-1004.355712890625,446.321533203125,337.47735595703125
10408,535.2376708984375,-1012.6508178710938,441.9794921875,341.9166259765625
10409,517.2525024414061,-1031.043701171875,417.6140441894531,339.2052001953125
10410,524.0964965820311,-1025.093505859375,418.8482360839844,335.2895202636719
10411,537.8930053710939,-1004.9391479492188,438.76318359375,334.2124328613281
10412,542.0368041992189,-998.1923828125,443.55401611328125,345.61163330078125
10413,506.2870788574219,-1027.8834228515623,410.7064514160156,331.6954650878906
10414,513.3143310546875,-1019.3639526367188,417.6664123535156,329.6048583984375
10415,532.4102783203125,-1002.5269165039062,444.9414978027344,336.9275817871094
10416,530.289794921875,-1005.9227905273438,437.2896728515625,342.6982421875
10417,504.17779541015625,-1023.0327758789062,413.1560974121094,333.8085021972656
10418,513.4527587890625,-1016.701171875,424.1663513183594,334.4293212890625
10419,535.93701171875,-1000.04736328125,445.22198486328125,340.1289367675781
10420,529.7587280273439,-1003.8583374023438,438.5462646484375,340.6861877441406
10421,517.7124633789061,-1021.8060913085938,426.5748596191406,340.88067626953125
10422,510.5917053222656,-1022.9205932617188,422.73773193359375,330.573486328125
10423,539.1719970703125,-997.17138671875,441.2203063964844,340.3570861816406
10424,530.6338500976561,-1004.2958984375,434.11822509765625,342.8515930175781
10425,507.2108459472656,-1020.6243286132812,413.50390625,342.6645812988281
10426,514.4998779296875,-1009.3971557617188,420.7593078613281,337.7989807128906
10427,535.5181274414061,-991.6924438476562,444.27581787109375,340.48797607421875
10428,534.4672241210939,-991.9617309570312,443.9990539550781,349.833984375
10429,510.0269775390625,-1019.154541015625,421.567138671875,344.5981140136719
10430,514.6868896484375,-1019.8501586914062,423.8634338378906,338.2215881347656
10431,541.266357421875,-992.8143920898438,446.1943664550781,342.24945068359375
10432,528.97705078125,-1002.0257568359376,436.8184509277344,342.017578125
10433,507.1510009765625,-1016.3757934570312,414.1920471191406,340.22991943359375
10434,510.05316162109375,-1015.2762451171876,416.05078125,331.1083068847656
10435,531.5613403320311,-991.1576538085938,441.72894287109375,335.1847839355469
10436,526.1534423828125,-993.9139404296876,437.8917846679688,347.20855712890625
10437,504.6078796386719,-1019.0123901367188,417.3335571289063,338.5469665527344
10438,512.00537109375,-1018.4439697265624,415.8151550292969,326.6952209472656
10439,531.1461791992189,-994.7965698242188,445.2668762207031,335.831787109375
10440,528.2066650390625,-993.532470703125,439.6831970214844,342.95257568359375
10441,505.26983642578125,-1016.959228515625,414.0013122558594,329.23834228515625
10442,513.1572875976561,-1008.0844116210938,415.6655578613281,333.35223388671875
10443,534.4559936523439,-996.5281372070312,432.3492736816406,333.58038330078125
10444,532.3429565429689,-993.0949096679688,434.19677734375,339.8970642089844
10445,502.4985656738281,-1012.8602905273438,409.0160217285156,337.099609375
10446,511.6388854980469,-1005.6123657226562,414.24066162109375,328.74468994140625
10447,531.3369140625,-983.6329345703124,431.70599365234375,334.67242431640625
10448,519.892822265625,-989.0670166015624,427.9660949707031,339.3809509277344
10449,499.3233947753906,-1006.113525390625,405.81842041015625,335.7121276855469
10450,503.89727783203125,-1006.255615234375,414.62213134765625,335.5662536621094
10451,534.2166748046875,-985.5103759765624,437.60009765625,338.214111328125
10452,534.8823852539061,-990.4358520507812,432.2707214355469,342.4102783203125
10453,512.2821655273439,-1011.0875854492188,412.1762390136719,339.1715393066406
10454,520.0518188476561,-1008.09375,412.3351745605469,328.4062194824219
10455,538.6577758789061,-986.2564697265624,439.1802062988281,335.4970703125
10456,535.1535034179689,-990.415283203125,433.26739501953125,342.6440124511719
10457,512.2503662109375,-1011.919677734375,414.66888427734375,338.48150634765625
10458,522.3406372070311,-1012.5368041992188,423.016357421875,337.3109130859375
10459,541.4178466796875,-992.4984130859376,443.5147399902344,337.456787109375
10460,532.4271240234375,-996.0812377929688,438.7987365722656,341.58563232421875
10461,513.4658203125,-1016.8675537109376,414.78857421875,339.02752685546875
10462,515.9977416992189,-1010.9585571289062,410.6784057617188,327.5198669433594
10463,539.21875,-986.4472045898438,440.3956604003906,336.4844055175781
10464,524.9360961914061,-988.59765625,430.61956787109375,338.900390625
10465,502.7061462402344,-1004.664306640625,409.9902648925781,339.0948486328125
10466,514.6251831054689,-993.3698120117188,418.8949890136719,339.5473937988281
10467,525.4634399414061,-977.5574951171876,434.62872314453125,332.8155517578125
10468,530.919921875,-983.279541015625,435.79931640625,342.9432067871094
10469,510.3616943359375,-1000.733642578125,412.499755859375,338.0888366699219
10470,508.4842834472656,-1000.1838989257812,419.35498046875,331.05780029296875
10471,533.537841796875,-983.279541015625,439.7299499511719,331.3607482910156
10472,530.7965087890625,-992.2291259765624,432.9345703125,336.6601867675781
10473,510.0774841308594,-1012.1702880859376,407.8921813964844,332.6846618652344
10474,506.2104187011719,-1000.9655151367188,409.6723937988281,328.73907470703125
10475,532.2251586914061,-979.771484375,434.1387939453125,331.71978759765625
10476,534.5850219726561,-984.124755859375,433.3833618164063,339.4351806640625
10477,509.6548767089844,-1003.1122436523438,403.6324462890625,328.5595703125
10478,511.4163513183594,-1000.1016235351562,409.4068603515625,326.3118896484375
10479,529.0125732421875,-983.4889526367188,425.30889892578125,321.3377990722656
10480,522.7520141601561,-978.9300537109376,421.3371276855469,331.3457946777344
10481,506.1169128417969,-997.2069091796876,405.1770324707031,334.0048522949219
10482,510.9787902832031,-993.6951293945312,404.1373291015625,320.2308044433594
10483,532.0755615234375,-977.1124267578124,426.3523254394531,328.0023193359375
10484,529.2332153320311,-974.8236083984376,430.2119140625,339.46136474609375
10485,509.0153503417969,-996.7095336914062,404.6871032714844,333.41021728515625
10486,513.4658203125,-991.436279296875,413.8311462402344,331.7235107421875
10487,527.8008422851561,-972.2842407226562,431.5283508300781,330.7511291503906
10488,524.98095703125,-979.6480712890624,428.1213073730469,335.6279602050781
10489,500.1069030761719,-991.6980590820312,405.48370361328125,331.71978759765625
10490,512.7814331054689,-986.342529296875,412.7129211425781,333.7729797363281
10491,537.457275390625,-975.803466796875,433.2187805175781,332.7482604980469
10492,529.3192749023439,-978.6046752929688,426.7076110839844,341.21539306640625
10493,508.4992370605469,-1000.50927734375,408.0155944824219,336.84716796875
10494,510.7394409179688,-1002.3231201171876,414.33978271484375,332.52386474609375
10495,533.7772216796875,-981.1029052734376,442.8752136230469,336.3198547363281
10496,532.374755859375,-980.7139892578124,434.3482360839844,342.890869140625
10497,506.1991882324219,-1007.2672729492188,413.17291259765625,332.09002685546875
10498,509.9690246582031,-995.39306640625,414.1714782714844,323.27508544921875
10499,527.37451171875,-978.42138671875,435.986328125,331.693603515625
10500,529.3865966796875,-977.0451049804688,438.0395202636719,344.5214538574219
10501,497.6273498535156,-1002.85791015625,407.0207824707031,334.8800048828125
10502,512.3551025390625,-996.6384887695312,409.425537109375,328.3613586425781
10503,532.64404296875,-979.3900146484376,434.6885681152344,333.18206787109375
10504,525.826171875,-981.8209838867188,430.2044372558594,341.3126220703125
10505,502.4069519042969,-1002.9252319335938,402.0579528808594,333.45135498046875
10506,509.3444519042969,-1002.5624389648438,413.2851257324219,329.1691589355469
10507,533.7697143554689,-983.5338745117188,435.2981872558594,338.7320861816406
10508,524.5022583007811,-988.8258056640624,427.2087707519531,337.9953308105469
10509,508.15142822265625,-999.4471435546876,411.3328857421875,342.40093994140625
10510,509.1948547363281,-997.6893920898438,413.8199157714844,329.2738952636719
10511,534.1325073242189,-978.5934448242188,435.3430480957031,330.9718017578125
10512,528.5862426757811,-976.4280395507812,436.5435485839844,339.8727722167969
10513,510.2457580566406,-999.3274536132812,410.6784057617188,336.9593811035156
10514,513.910888671875,-991.402587890625,417.9824523925781,332.11993408203125
10515,529.0238037109375,-975.825927734375,437.0260009765625,327.6432800292969
10516,530.6880493164061,-976.1587524414062,437.05218505859375,342.1279296875
10517,504.3030700683594,-999.0507202148438,410.6522216796875,332.703369140625
10518,511.2218933105469,-990.4826049804688,414.7623901367188,334.0834045410156
10519,532.045654296875,-975.7510986328124,434.7970275878906,339.9625244140625
