,P4,Cz,F8,T7
9000,0.36366961603307935,1.7370143247491736,-4.067891840187775,0.3816847974272952
9001,1.431664022826435,13.112759265396534,1.6083461865937738,9.416291161735362
9002,3.898135183055482,18.65439244729115,3.6843861351468785,15.530511505938616
9003,5.212464339983151,17.267149752785805,-0.3610152890170271,14.671485677622309
9004,4.9560956712734106,14.274595930053136,-3.3500136173739046,11.45677167898518
9005,5.280301583822668,16.31803227668078,0.6105502311220524,13.639821556693814
9006,7.11994759817231,20.412584845895317,5.173872983211308,17.368618965318912
9007,8.243424166651078,19.019546371647778,3.146154784715387,14.452219273066707
9008,6.808099000264099,14.54271634583076,-1.7590099793023684,8.127760146037017
9009,5.448864499901149,15.442722243347257,-1.373262069746302,8.112145995500782
9010,5.748154467979391,18.92319707537462,2.6088864391456985,11.101580628614135
9011,5.89239986768443,17.879505958634113,4.290304056821104,8.635110086563174
9012,4.952577424015585,15.253588220606924,5.12495841990993,4.030545803650501
9013,3.814617017051231,17.279525394572293,8.168221100061501,6.274571347532913
9014,2.5143948563463057,19.569415930011264,10.191506860451444,10.783132143909707
9015,1.1208829881598326,15.737489003956991,8.283010726151485,7.635714283893725
9016,-1.0025899833038479,11.347197384720277,5.448754607806464,3.0575087300955044
9017,-2.6073218511686855,13.184843573401555,5.631914914884781,4.219148833183256
9018,-0.2122176520305486,16.562166437172376,8.082959825275136,5.615808990365122
9019,3.0395370602315053,13.661201673497864,7.770126301498687,3.0060057335372194
9020,3.9761963390851327,8.365482935469748,4.0600532063360415,0.689946075559151
9021,4.421962987124498,8.305284499273554,2.4945813014449114,2.5799630625775745
9022,5.003049142731885,10.62310815246311,2.7236935589257607,5.376604705712889
9023,4.078050177575108,9.454411145417646,0.5050239851330698,3.983843933190794
9024,2.1183474577637513,7.304423700605921,-1.4179158161583894,1.3945216612463234
9025,1.796845617033208,8.988377578399222,1.0766193343695163,2.91720504582102
9026,2.8294353361590368,10.857994232166895,4.767585149921109,4.606321161055749
9027,3.209357881483271,8.564165892570337,4.595526858706737,1.9630584686622776
9028,2.0479743701045026,5.597465117516347,3.4794083315370896,-0.8794947595171267
9029,0.8726394408124777,5.953352642937077,4.540503846716511,0.7108719106414811
9030,0.023866216380175782,8.024297358822391,4.187142592701196,3.9938922077776775
9031,-0.820142770725008,8.10908959826864,2.0866544891851477,4.521993036163183
9032,-2.0849345632620597,5.7187823829181585,1.4901574721291864,2.6254459858889243
9033,-3.1331669018487878,5.276571661047165,4.962631578895224,3.0837580992305234
9034,-2.585341929883927,6.918102004964955,10.430404253705284,4.743173901023101
9035,-2.395838634215492,5.38518323526841,11.226851710806503,1.3522136930476791
9036,-2.120227988497918,2.707209300237828,8.104288304454753,-2.9671752060535965
9037,-1.411549000026953,2.678234640338249,7.12994341812721,-2.0726179678873136
9038,-1.4766791662079959,3.149034303067946,6.962073278264095,0.8785686244297899
9039,-0.9838137637240869,3.206886660710026,4.605753709332792,2.7252830651372624
9040,0.4881912926998288,4.078155116428984,3.3652663195660333,3.514541492203418
9041,1.3202740382256428,4.13724671606197,4.621473463045635,3.2082178140787594
9042,1.4552996279262584,3.737558593553336,5.794995468252118,3.8791581394322896
9043,1.7777026364018986,3.860594154386181,5.415519173107438,4.6480691112354835
9044,2.192759342563375,3.583615226341122,3.9790927790472783,4.233041616759516
9045,2.440607913967724,3.9890825143048576,1.9685236799902683,5.406050369495756
9046,1.8142151613895046,3.7998364098143247,-0.08871999913846196,5.5406307735518645
9047,0.5061737530952363,1.4228853742554912,0.062273733291279915,2.6566305387338836
9048,-1.1847388715528755,-1.6824278646937567,2.9380746108049527,1.770171708226878
9049,-3.8795629360843815,-4.685726842405825,4.6918849488040975,2.412555097647327
9050,-6.328598103288202,-6.7011864451849394,2.66699819366787,1.752232446524979
9051,-6.232376991016911,-6.189013031216076,-1.2209389907615043,2.8288754115049435
9052,-3.194742867979687,-2.675943923476638,-2.737793653007742,6.545476028157016
9053,-0.1989319692388981,1.2029910861047521,-0.8756931590335958,8.702640016888534
9054,0.6992869351448897,2.3733933138628402,1.0491556547290988,8.093589713704041
9055,0.7516844589072348,1.4015747292249277,1.2108178972136887,7.35172414313339
9056,0.4274004696300194,0.5159855012832357,-0.12839597035149652,7.654864698097078
9057,0.11999988122765895,2.589414737815199,-0.20811099528877142,8.66431388290946
9058,0.1370024560825935,5.867953197336696,2.0189602916760494,7.9913895628766936
9059,0.4766134984881676,6.016873264999016,2.7378166140621043,5.9506588649317065
9060,0.1777413612341644,2.9489847638171156,1.2039774725696777,4.054874084385391
9061,-0.8078744887130285,-0.29853333280644867,1.2636405827200765,2.002427014163547
9062,-0.646160592614206,-1.2952000186303385,3.310839468697381,1.1546884793573415
9063,0.1948244449752372,-2.1087886979230897,3.839701205947469,-0.03937991311644151
9064,0.6947454733506591,-3.2766542953818023,3.3649673022037496,-2.4959793368977587
9065,0.49048803536813407,-3.9891133152682707,4.703059056424129,-3.001540896460283
9066,-0.5770850966512443,-4.910414217858798,6.15596518048987,-1.8595193474282363
9067,-3.00027295121304,-5.698895236404336,5.765929019808944,-1.8262667372078112
9068,-6.625330194112952,-6.5874908245247825,5.072268399228099,-1.8113212050125052
9069,-7.3590609416331425,-5.5878999908611675,6.054617734521902,0.3794685023107911
9070,-3.846424699037113,-2.0708135322675583,7.91464523540047,2.9109909252266517
9071,-0.7302470408566216,-0.585939390212081,7.001815007408186,1.9388748803131597
9072,0.7988275499720596,-0.5529304901415173,4.851301780692814,-0.5110327769126934
9073,2.435628864903643,2.218683277167505,4.972942816812666,-0.14610044115840873
9074,2.3313028935063596,4.419165624267263,4.939476409234457,1.5476503134814465
9075,0.6542018687071997,3.1074666439206124,3.015135279799068,1.9950587446292718
9076,1.2373157408939015,2.587965243017234,0.5369097891725553,1.6257759393050772
9077,3.2222293290418587,3.6193968983994544,-0.9935584698450328,2.2674421523625274
9078,2.902826365316241,3.0684364366128483,-1.8701795086454784,3.508911139979631
9079,0.861555937312974,1.1823123734255416,-2.5891216076872907,3.645238816810997
9080,-0.8848677810025285,-0.18659962849427875,-2.6314909101148785,1.6814307034488987
9081,-3.146322940831096,-0.20642727405034236,-3.029724799040176,-2.5718344462901848
9082,-4.8676934810131955,0.15221963649981374,-2.77331029470136,-5.528007264288096
9083,-4.418402366711355,-0.46389003528494355,-0.856275296530562,-4.9065537044054945
9084,-2.9416616062981076,-1.4702512613022585,0.42758114881677234,-2.4229528491536976
9085,-0.7984802422509485,-0.5822148734090274,1.1779582995005737,1.2171983086069829
9086,1.5432152901634935,2.693571410784499,0.9888553583849942,3.846753251525933
9087,3.045280598838515,4.882714863470132,-2.2334423583895293,5.031134722845009
9088,3.5977896145311994,4.428390844911071,-6.144917987844326,6.955066134722374
9089,3.5354917753677224,3.8052039386445484,-8.25555531494092,7.412760304080577
9090,3.5063499308305315,3.248940032274257,-8.241124829948479,5.38031791688188
9091,4.787136638243105,3.354595353271509,-5.842650173100118,2.4723292385999023
9092,6.289257011909645,4.823245250369172,-3.7393706769683983,-0.872083884216722
9093,6.288669098862137,6.710719572046603,-3.409190191628787,-1.462627408434607
9094,4.962686903780947,7.709218561486565,-4.206866590032692,0.35190700137150277
9095,2.1632833431691494,6.165711114238997,-5.296835502980278,-0.08756708169276338
9096,-0.6085100335703117,3.197933167987561,-3.834992226259039,-0.597741617241201
9097,-2.975864326042651,-1.4027156267699021,-0.5885965707403853,-0.2177041717931386
9098,-5.664725631829026,-6.633604856751988,1.3985923191102874,-1.8083017712925527
9099,-7.250964588393044,-9.142492234105678,1.7711629422276758,-2.502991368610515
9100,-7.474772757275615,-8.75077782475933,1.0000599510918788,-0.48960107015756643
9101,-6.700328754989888,-6.804356194931751,0.2098041736561022,1.6985648094272763
9102,-5.537437483534546,-4.624182466370171,-1.0985284331535743,3.2445936469648826
9103,-3.801113442682991,-3.1343511588700363,-3.876137206790332,3.8847742107295633
9104,-0.6927760575740546,-1.3777469892307515,-5.594165843636887,3.9398278712932746
9105,1.5893580578442776,1.4363869771938338,-6.423931504698272,5.953860135513978
9106,1.7052414742927287,2.962317791944005,-9.159355749848913,8.725589623264018
9107,1.2548238390887778,3.2354111332180615,-13.1170796019503,9.395803416747741
9108,1.2857801029629075,3.835375995762953,-16.236615892133123,8.07087942575186
9109,1.6224130195774908,4.123919435309952,-16.86469171173352,4.917502253682311
9110,2.2851962384249362,4.487217287684949,-14.56598519407876,1.4435512933226955
9111,2.9404279079002382,5.526812968932417,-10.330854202992992,0.023951295449258614
9112,2.3503688370135785,6.5389295873162006,-6.809603782461529,-0.4088421227260808
9113,1.7099272594018777,6.741012305349176,-5.280236558207476,-2.012559916563354
9114,3.1011585563826687,6.422703885623026,-3.761362342025741,-2.441569410660228
9115,4.756603210844792,6.331691473669477,-2.9916372073445294,-1.2712526161759503
9116,4.210485253259716,5.3014707777187855,-4.474166095367245,-1.8316859569550212
9117,2.79175183635727,2.6859261875440867,-5.50700604913508,-3.024461380646295
9118,1.8264868752806687,1.012672795161247,-4.267709568309936,-3.48324562824007
9119,1.3855991633669025,1.9022477727342881,-2.6098217689051255,-3.596588723112961
9120,2.1859105730194655,4.49676415075702,-2.439333172887926,-2.6884033959624225
9121,2.910240690487271,7.72920899011215,-3.0882705404252073,-0.29141772313817416
9122,1.862199416110224,8.94674831843763,-4.259384049548357,2.917693813352462
9123,-0.04037683920788804,7.297549140434675,-5.699743904888749,4.6522254962426475
9124,-1.1336270834213087,5.2070629450547505,-4.844831592216763,4.045890037694948
9125,-1.6546355370691934,3.309229683021517,-1.8917844085318236,3.6757174154726644
9126,-1.9862660900267786,2.953949632620772,0.8247168877676702,4.809806007182088
9127,-1.7994713305625565,3.2287930974926264,1.8106577752907653,5.570188672544514
9128,-1.0776737145638664,1.964461581004279,1.821649231133009,5.790495150317571
9129,0.07075584994773848,1.0533579674021163,2.453676554673084,6.053985624342478
9130,0.656722813526808,-0.6343472896940885,2.3827987318134545,4.456393414769544
9131,0.9319406286597958,-3.999773117844313,1.993470264869059,0.7374184025255457
9132,1.789520392990171,-4.091386424752413,4.757358623256658,-2.2526885135011487
9133,2.5132367798318986,-0.35902214182567893,9.19865008799366,-3.3587666174699233
9134,3.6838050295448097,2.647314100196268,10.45554827590691,-2.6052942880983343
9135,5.098250070365415,3.0497102297552203,8.805454241473035,-1.846674689174351
9136,4.701431334661294,1.816208482389514,6.521210380315977,-1.9391238522035026
9137,3.3655908425935155,2.2244681984341534,4.027373663616765,0.11102490192762048
9138,2.7885305842182087,5.617022050029686,2.333972025691705,3.347294722840927
9139,2.3067440067437968,9.048215343477974,2.109315776853656,4.332375057589035
9140,0.8645173543142123,10.247843627716254,2.4551240945054995,4.8226545576031175
9141,-1.218274034284761,9.23602463067644,3.0705663605961693,6.6272219361066345
9142,-2.864815035635099,6.458778677764253,2.7784488582861706,6.264331838383645
9143,-3.901491382569447,3.2909996095477685,0.608239187950669,4.7290322790215
9144,-4.880675299930174,0.3415279718334408,-2.2789849852317023,5.516796963902725
9145,-5.294596504174533,-3.5635783454489345,-4.967025481737213,4.26466899849359
9146,-5.458947156230555,-7.310208954538276,-6.453412019534264,-1.3912836416325896
9147,-4.700325955696822,-8.511121481279392,-6.3870044725239845,-5.915972080847599
9148,-1.7816429980168016,-7.206233074531656,-5.0327873486765045,-7.409033186749518
9149,1.1784184647113665,-4.703362527118748,-3.3046929853584874,-7.552966569458947
9150,3.1019988436522614,-3.1449611805979263,-2.74512527930345,-6.123372430214104
9151,4.039397303682838,-2.8523002886414934,-2.7566451945923207,-5.077933299967427
9152,3.4879847999844813,-1.93951686175348,-2.674016307660488,-5.482421047754576
9153,2.2150247606310907,-0.805357231551116,-2.2762179761653076,-4.374910840860254
9154,1.956537319544096,0.41276039547722954,-0.3316065377262061,-0.42901638198741643
9155,0.6149731707780068,0.6475051232289686,1.8824723127535368,2.756449129310053
9156,-3.3979518113249743,-1.3037154667377022,3.478820344649714,3.4823794068510576
9157,-6.369493482658145,-2.0486941094150986,4.9031233745505975,3.56909973287787
9158,-8.616305668597596,-1.7581478733911835,4.18183625367781,2.6093734983050876
9159,-9.847417162709817,-3.544880845597854,2.1703007366520453,1.050849316942875
9160,-7.853515026224544,-5.078673581763601,2.149408306379072,-0.7026777298473716
9161,-3.844151529256898,-4.114886210016944,3.8870514559453944,-3.5457468396346226
9162,2.0249321693053535,-1.7676133349219876,5.048939587692628,-6.084166240790084
9163,6.540807701485352,0.06359235613889039,2.8618260709152246,-7.425971405060213
9164,5.060536140093592,-0.35165987870139725,-3.979217276957677,-7.502299153528279
9165,0.30417914457393147,-1.8186239774098625,-10.640096143304648,-5.328082207800822
9166,-2.6920546754467645,-3.076211289567743,-12.196920059234456,-1.0222714485124789
9167,-4.119100647486258,-4.319355520735073,-11.048312568096602,2.276313223442436
9168,-3.933230684399034,-5.0694253993020135,-8.978910945224197,4.261624429564412
9169,-1.924334527797727,-4.984774963698856,-5.792668062647506,6.848087026192761
9170,-0.9165288776656785,-2.702789691506017,-3.034310982637266,8.05656143731846
9171,-0.1847867270740588,1.008616294397457,-0.7958879290958819,7.714563048885165
9172,1.408412445042112,3.238183043485655,0.3137322617695296,5.796702559976834
9173,3.1463769526145384,5.631078499644434,1.1027240026113392,2.773438006036376
9174,4.756103456627846,7.766920195357809,3.800833992896319,0.7217344420284744
9175,4.240108904060413,5.737528576524159,5.988775705600685,-1.1662388035621538
9176,3.0471685065696383,3.1986003032566246,6.284294569272,-1.4519922200983637
9177,2.713351079563907,1.846993245571716,5.413237455345147,-1.809024780925076
9178,0.6772264311393001,-1.9452022904931465,5.071425733805235,-5.665854001778967
9179,-2.545214039058949,-5.733121843456572,7.143977283248506,-9.267049982519424
9180,-6.072207562413452,-8.797629693585966,8.934828283712188,-9.908964119676657
9181,-9.65574782208388,-11.532577223942793,9.001688100072009,-7.652620654742589
9182,-9.624073859571775,-10.22150414649969,9.229426767503664,-2.242166028622601
9183,-5.266960673569452,-5.1794823225814195,9.667641155472799,4.238476228951192
9184,-0.6070795003690719,0.5708276062919827,6.965298251261291,8.20229292810555
9185,3.0224855883572643,4.959568926345605,1.1232682194300128,9.066573599609582
9186,5.689336524900734,7.541210928915933,-3.409004822985113,7.841359977265789
9187,5.605599745202159,7.3166340465020125,-5.32420441312862,6.402854949935862
9188,4.373354161715634,5.150443652935488,-5.000504410678747,6.606690986149677
9189,3.5133546616045135,3.7261763598821114,-3.423578537182065,5.865328894815106
9190,1.5227093159581626,1.7169454219095286,-2.841098561419255,2.418169752247952
9191,-0.18772230780890029,-1.6106032003037216,-2.3239064272185788,-2.2584511312616256
9192,-1.2342232161702986,-4.905415010597253,1.1906312266141819,-6.483660791720627
9193,-3.8444061503452236,-8.558177362470886,5.249218424761571,-10.207862827120232
9194,-7.001228962768635,-11.945324362475725,7.475517681343889,-12.868446844582335
9195,-8.262072226622498,-12.319236734722725,10.714069522404868,-12.145269022458953
9196,-6.702189897717121,-10.428170471132391,14.000370210755268,-8.924193161282403
9197,-3.838071874545291,-7.843274619348715,14.235869128343001,-6.89156434504794
9198,-1.4874387608174569,-3.0082426170560703,11.572998416190694,-6.936674328019361
9199,1.3945382749785389,3.7803649597920876,7.274756898930738,-5.626953142298162
9200,4.171938230676972,8.990248601348934,2.9652449105321024,-3.1271374206683924
9201,6.049591160668334,10.430777603601923,0.6909334820604944,-1.748887338568884
9202,7.448752312193049,10.173544285767722,-0.5107296934838762,1.7470587504656898
9203,7.942255048235065,11.166530340911876,-2.191601007845157,8.790732065349701
9204,7.076091912645756,10.65256557617735,-4.680795495171567,11.970222964562176
9205,5.419717034531443,7.935767112140267,-7.6443686561194095,8.131027642421452
9206,4.003268885046153,6.215710238758543,-9.055364994928636,4.185079240652543
9207,2.0237045614519933,3.836213564712701,-8.122346057978737,1.8652956021734366
9208,-1.2445519306639428,-0.7338515304409747,-4.872252060298853,-1.1599313958976973
9209,-4.011047311070554,-5.257299262693306,-0.020403809040175802,-2.1144545766310356
9210,-4.369779925085245,-7.204671318761094,3.8617057982738068,-0.6017432886715124
9211,-3.9781897655882075,-6.12049283195156,4.380539188274891,0.3236216868595324
9212,-3.070856440066354,-1.6663198215512653,3.22482645654008,0.5895183522309604
9213,-1.261338646397255,4.4831512139543666,2.567215036020815,1.2776531638914381
9214,0.21632656017894353,8.239134083664402,2.610538087447396,1.6585024188786672
9215,0.6670412289893924,7.566394504297217,2.81837529748077,0.06861966704848324
9216,0.7730971927337271,5.635533826986917,1.8360977289478684,-0.8178362140338653
9217,2.968561961370713,6.291070776764073,-0.28759192941080935,2.075252572770214
9218,6.166284830038776,8.430010847614883,-2.607587056076531,5.92560665883512
9219,7.311757919865057,10.059760261867842,-4.643220223644823,7.137764353102106
9220,6.726411358075468,10.763610246897025,-5.4327896040349,7.330959574757999
9221,6.127607250722661,10.842671420018009,-4.178335383499699,8.643076201638976
9222,5.104394768023508,8.959256505847527,-2.382792780170628,8.815978310359823
9223,2.7447339584671604,5.294770238706006,-0.7741639499319745,7.190263847165628
9224,-0.6815813010193779,1.4181735338895816,-0.8872444968302502,4.649621714699546
9225,-3.945301273845674,-1.572171659242349,-3.0977057667474366,2.1798049906787473
9226,-5.532884787596417,-2.267144278023413,-3.2655319733105026,1.6693643580906627
9227,-4.8421746682183375,-2.930602805217492,-1.1577801847166096,1.825704700852306
9228,-2.6723256817287493,-3.4551254947350527,0.3835750096637659,1.4621817998616362
9229,-0.7404850483116965,-1.9444730981674179,1.4262531698971774,2.082497648111799
9230,-0.2069280072924718,-1.5534107181777799,2.410400926020381,2.2575569482596305
9231,0.45136375516317206,-1.9292298849361842,1.9476195143991064,0.35201978448300486
9232,2.7916565964246978,0.014130078381652506,0.9114530681911166,-1.3715999020218428
9233,3.9642994062757313,0.8500304054552873,-1.4360792749578937,-2.68062472890009
9234,4.232510643469267,0.10728558592152525,-5.791889814909286,-4.441985292633483
9235,5.770815618360214,1.6518629871532127,-6.655981096209064,-5.209254787627781
9236,6.482859565874583,2.904098030194799,-3.274176734424669,-3.5799670471941036
9237,5.763431044965027,0.867746866832968,0.14874900155546378,-1.5466664886623016
9238,4.56811722388256,-1.8464879774572438,2.9228385261718315,-1.3100016726627128
9239,3.520183135040763,-1.638925996331037,5.03977529808546,-0.011635193514842462
9240,1.9756314210204775,-0.3440262850037389,3.7835351965635144,0.13117232434311119
9241,0.8342183061413205,-0.3368348023541789,1.0736515970171865,-3.4691167359419914
9242,1.0186564276388568,-0.48758597641508444,-0.39157491941131295,-5.72005828119258
9243,0.8070823620272817,-1.26533694749841,-2.6860455968530164,-5.25199410595906
9244,0.49306437663144065,-2.1690799053199648,-4.0057436404133995,-3.8575981881184997
9245,1.0534522492176908,-2.4661097692851017,-3.4063746912205826,-2.1808343747036307
9246,2.080200432902818,-2.847884310859411,-3.357039853970817,-0.11514087895680372
9247,1.9844073935832347,-2.414532097779749,-2.7671585678418222,1.7426607448897957
9248,1.171118163529887,-1.5776692922906537,-1.6345872333992684,2.508127211679758
9249,1.074775143170555,-1.4774510741214495,-2.2331269171076724,3.1306685224911823
9250,1.646971600244111,-0.09098675467474998,-3.4786835549767785,4.1927704292424455
9251,2.8340707789857795,1.891442425939906,-4.919964364290879,5.074759193265756
9252,3.3795552281483032,1.9131829404161156,-5.743782015151788,4.510943212844927
9253,1.4873163830696403,1.7170558988641629,-4.181633356265795,1.8409387206382752
9254,-0.3275492010634398,2.4067069819531888,-2.4037315439892364,-0.43350932098632433
9255,0.3928249451324908,2.979048416138552,-1.3059021209871355,-0.08130300646362373
9256,1.3944700279351359,3.909517421415702,0.10895188377792311,1.4321920616099226
9257,1.3869464804467913,4.255244257711768,0.7147172021276744,2.76190864145372
9258,0.13070329640102282,2.3878781292719053,-1.381391367888773,1.5264381934721745
9259,-2.415841547991078,-0.15781444638264716,-6.151802872122175,-1.932349976218997
9260,-3.352972475898436,-1.726018299790774,-9.225974847431157,-4.230701206174347
9261,-2.2047601663477248,-2.66255676899917,-7.532876225937279,-5.724726883293585
9262,-2.1354261087376405,-3.9276066555147047,-3.491049918366613,-6.664894933061722
9263,-2.629092248365905,-4.726225764180283,-1.533043358507703,-7.354992426379042
9264,-2.550029474682261,-4.8026054448515545,-2.8887608884981795,-8.22771209775089
9265,-2.2596525162561867,-5.378298213278875,-4.656259118428427,-7.49970171854507
9266,-1.0075796264779473,-4.944546901156796,-5.8888265119849805,-5.480280557832593
9267,0.9210629041879578,-3.1005164526872844,-5.6836609440442745,-4.949842520770195
9268,1.6863123026900217,-1.9502630484282328,-3.843763039017995,-5.056286645006747
9269,1.218028907374129,-1.6418953969410985,-2.9103981766031,-4.686639747623333
9270,1.4284706628546755,-1.022660537036025,-1.6699443922113377,-5.508695486137424
9271,1.9137136845974563,0.015430342443377376,-0.07625424691624266,-4.699018991299697
9272,1.1927990924238432,-0.15731658232913404,-0.29939700720003565,-1.0612505256187994
9273,-0.6074173170249714,-1.0090164766627323,-0.8235158637957696,1.121029620152137
9274,-2.0494301967354125,-0.6139419362577326,-0.3615858629740501,2.347664959387847
9275,-1.8585935158225013,-0.012179719946586454,0.8306171821551389,4.0540365797270175
9276,-0.5891642859240093,0.19736954526934286,1.7937690488144244,4.51254563958683
9277,1.0476066429030926,0.030572006034099347,1.6610145594323455,3.9247441153281404
9278,1.5372224601265239,-2.5069728936531313,1.3206897679187366,1.629598863355046
9279,-0.17500744776391206,-5.9162656678095145,2.877682476831861,-1.6259594038642184
9280,-1.16960509762247,-6.95499879913282,6.514339715555506,-3.338553717132625
9281,-0.3112772199163033,-6.483476600274328,9.54002026352491,-3.6314823826375457
9282,0.5155647862225455,-5.086896801688213,11.69055602417306,-2.572541285383729
9283,0.1996617850851455,-3.9238016115793446,12.187839097423211,-1.3866144380908225
9284,-0.727813087326228,-3.7420574058133202,10.042285460416238,0.36378592844082014
9285,-0.767464019138439,-3.3014880119571224,7.915299314207963,2.626156378414828
9286,-0.7566948507306746,-3.6303095236313694,6.156721286773941,3.2620318452480803
9287,-0.9986059252246218,-3.946540922292176,6.231698223186306,3.280127240295093
9288,-1.574441486928703,-2.9438969343955,9.77058115623767,1.7320908954853862
9289,-3.1492151528435612,-2.2937469523338962,13.473460054591369,-0.8123540386401978
9290,-4.379619905205142,-2.151170664545041,15.660517039253254,-1.9992781028731437
9291,-4.507274283884342,-2.0300660519094045,17.38434046927926,-3.8679802361289317
9292,-4.484176056887546,-2.5880771851494653,17.89159729883488,-6.209797309369969
9293,-4.538467584247705,-2.656547807855365,16.35080940751175,-5.069667629151139
9294,-5.332601447376549,-2.5581469363661253,14.573714089054215,-2.8013504670569516
9295,-6.983821422115183,-5.478154651009545,14.263591720296056,-3.4879691868835137
9296,-7.386820476442348,-9.447443006300743,15.755882971060323,-3.8195823079591866
9297,-6.8354749626057565,-10.039974670244696,17.832555578348373,-1.110961654586711
9298,-6.592152272840228,-8.305842454564221,18.55176619646699,1.4355285777522353
9299,-5.365489032474325,-5.533911287793486,19.39991232068455,1.4576667786125552
9300,-2.8932420832906702,-1.5232366244128777,19.936543355193358,1.2641798646523623
9301,-1.8910523434255195,1.1351255695455833,18.25252759379142,0.7641137652812344
9302,-2.5359859035334726,0.9298952693206227,17.968070859427716,-1.9046188976939795
9303,-2.432590752959373,0.6125059938187585,19.0677674572788,-3.6142243002799628
9304,-0.8706462736471319,2.1064337693315425,18.562028402861543,-3.296027780642208
9305,1.5269432831809844,2.5919806555994267,17.38943474684597,-2.8067210881408347
9306,2.3886734921325963,0.40990765444934074,17.522972819816506,-1.879472336874745
9307,1.1743076897739801,-1.9183914068063392,18.559244577413576,-1.3503768046903752
9308,0.07908766597071414,-1.9998530248021398,19.12435060013167,-0.8661082107444557
9309,-0.4888216841131183,-0.575463269924346,19.20203083153785,-0.9668628587200407
9310,-0.9659632793019943,0.2014185064183302,18.225892435132348,-2.6173875591052167
9311,-2.1499432958881823,-0.49951218279511644,17.49175791446671,-4.202160475314648
9312,-4.351969597639415,-2.475412608433055,18.38891196272889,-6.867519261791119
9313,-5.618835363699903,-4.102084374423651,19.46420383086476,-9.325114368382978
9314,-5.11800734921551,-4.303143028577639,16.79031426709382,-7.326761694507001
9315,-3.771091390182213,-4.066109072801476,9.076356968995924,-3.0304213874513692
9316,-2.1091308622769125,-3.712207564387813,2.55169551149698,0.19611260387333446
9317,-1.2780419988433178,-3.845844004902534,1.8956998459648793,2.1570582475959608
9318,-0.6455326971199122,-3.6291727832183946,4.500470182985069,3.0140401269691006
9319,0.030791822870584424,-1.3508196322518855,5.919830430140446,3.0849962878564856
9320,-0.7871630490270912,0.5603694953834752,5.7437837579804505,2.879422192614043
9321,-1.9906125360212732,0.7289112338737684,5.886288569441713,2.5040644121659716
9322,-2.639392294921335,-0.7508995058551704,5.6871296556974755,1.2232096914750277
9323,-2.447780372232314,-2.748250647775535,4.412469024088927,-0.22823580493505413
9324,-1.7560944708702064,-2.9657384674398157,4.068573875198023,-1.857381551653
9325,-1.2178906168216639,-2.1743824298872054,4.692556516221419,-4.747858597158202
9326,-1.0265098772122598,-1.4422679251633872,4.298437539400288,-6.434735475118705
9327,-0.8223662834104093,-1.0509016182153559,3.8070639176550025,-5.214093275728829
9328,0.3483172887763751,-0.9498637391299738,2.7915193116512995,-3.4167893960355906
9329,-0.0698735352614537,-2.6229281731777716,0.28762932250309886,-3.3444611575627
9330,-2.6343026841234636,-5.8690503294272025,-0.5952252547124175,-4.226351525560548
9331,-3.5869647579537736,-6.986112401904467,0.5058926276553781,-3.8594687009399986
9332,-3.3471312963216784,-6.525660412829346,0.5947711988904523,-2.6089073866547987
9333,-3.9243850414514005,-6.43222244758881,-0.9659566741377197,-0.6774771305703876
9334,-3.5336940908061023,-4.923095092656589,-2.416364480651124,3.331392024122255
9335,-1.650194395008708,-2.6935141843989747,-3.10559410920069,5.450675619152632
9336,0.05842850261197373,-2.878886346933263,-3.9480406349569908,3.3649204148654484
9337,1.9990245368751174,-3.864001502647153,-4.915925404925877,2.184842254110822
9338,2.840998612967614,-3.707136389179353,-6.177584459960447,1.577450976047938
9339,1.4357827649572596,-3.225727530372476,-6.618038726342273,-0.19905549628493585
9340,0.52093596552753,-2.25801898708543,-5.367237791512055,-0.8650789720953869
9341,0.8019040070418655,-0.47827323178570447,-5.033801577328954,-0.7004892198142616
9342,0.7118759013480939,0.6460504499601452,-5.896698037210454,-0.6135076308886714
9343,-0.027355528332798307,0.3086700532908633,-5.650787539898696,0.19049454588741802
9344,-1.3930764708520906,0.334677514567098,-4.019810264366047,2.4041918976752004
9345,-3.776150932013137,0.3050980758495004,-2.056623954045239,4.8959498162749435
9346,-5.407447633730566,-1.61793542971252,-0.7295372495487329,3.845988941547734
9347,-4.200171858644006,-3.238153727919147,1.4766826375525361,-0.4997374334760837
9348,-2.2700447748372437,-3.512435717804362,3.6608515031781197,-3.4329240289029936
9349,-1.4915181653756158,-3.615983484348668,3.4504507023618034,-5.4629795562386585
9350,-0.6707043657586378,-2.22634170138664,2.5751058317134485,-7.2953759143948025
9351,0.7629727024785314,-1.0938185644875813,1.533196015120359,-7.597307104554676
9352,2.776828876662481,-2.386359190364061,0.03643979752225328,-6.915044150934128
9353,4.093279627871785,-2.415363841592292,-0.6979276992829326,-4.391314194232913
9354,3.192447528234207,0.41957838982712825,-0.6562837771326191,-0.8374028067023469
9355,-0.520137816085851,1.0804269847718986,0.03751249584159569,-0.08201789010558133
9356,-4.3964733832104566,-0.8470789735441012,2.9059788609131547,-1.038130945512041
9357,-4.446040298748695,0.3247810431951216,6.715270756070111,0.7377512249032394
9358,-3.251696026102004,2.7593594684099814,7.30736971471483,4.101647294552459
9359,-3.7768074432077734,3.7122288497850287,5.296736383770101,7.1656686654898945
9360,-4.6835830056826095,5.334962676153471,4.311776989444073,8.275282885382431
9361,-4.687784766676039,6.531219618469474,3.46827136902637,5.594586988001992
9362,-2.552963248424919,7.574596793817908,1.9373220593668796,3.262339175486754
9363,-0.016850511257281067,8.076913765143694,1.1301612359889435,3.3171706213761625
9364,-0.9441928092279864,5.071335343639137,2.134219744873133,1.610727069836962
9365,-2.7107621674657105,1.0686482686181284,4.746441721979604,-2.4691715712392264
9366,-1.313597669476535,-0.608369179749591,5.662823273909176,-3.8408914319499647
9367,-0.30598584919398425,-0.11003731635261954,3.1636563137418117,-2.656567510607931
9368,-1.0299261758716192,1.7702531050372423,-0.3786624060095358,-1.612253338301682
9369,-0.09076740636107347,4.801174961586156,-2.048631688637268,0.8736560484260018
9370,1.3869348726590307,6.926321415525311,0.5536062140729894,3.9989276298332
9371,0.9581105244789552,5.47067765646503,4.737632828372403,6.857340987472114
9372,0.3891493015767302,3.6613226049365633,3.6188298837567987,9.267848458836612
9373,0.15996971977676971,3.214081461532279,-1.2847985653792608,7.1803658839477
9374,-1.0790924444697463,3.1333104991372793,-2.875839387976583,1.8347386831308832
9375,-1.2527229330351108,5.993617972093586,-0.8410129628582531,0.23739324105791404
9376,0.012779589788281184,8.268065540103368,1.0928745084044809,1.453338973303231
9377,-0.07823352945297306,5.705811501540994,0.6121442855250449,1.8770979598888133
9378,-2.0197083897738346,1.4544731476598804,-0.5630802680390802,0.770403126243726
9379,-3.554900236684872,-1.4564974818744196,1.2680611516747575,-1.6494170110444542
9380,-3.8686523046310897,-1.5263361073313881,2.2816047078781008,-2.9239764890123925
9381,-4.861094802636054,-1.3261724709937472,0.6654892811598985,-3.0428675106305616
9382,-7.062364047213181,-5.018996115293051,0.18208665096004717,-3.980364250670674
9383,-8.12900937682001,-8.616939714185882,0.4890979813368674,-5.132027477401021
9384,-6.351819157972662,-7.1640832069815685,1.4012679106597368,-4.56532926350179
9385,-2.3498846889132503,-3.7003078683674118,3.487512698804216,-2.3234195416379655
9386,1.969098647849965,-1.0317272612707955,5.7801797744096,-0.38489343010507443
9387,4.067011318923482,0.2335733428282319,5.480063000002405,-0.2633459182483452
9388,2.6594523885363537,-2.1249268714150045,3.1404010044706565,-1.3655147697975185
9389,-0.04403467813986695,-3.7038737126644725,2.565672164502032,-1.5319162732807274
9390,-1.0252087458462333,-0.5922539429843358,1.5373533714732248,0.814669627566447
9391,-1.06509411486565,1.7438295194281124,-2.3760234520481425,3.5066500104572302
9392,-1.449229365288177,1.9292002687145686,-5.083840725039348,3.5310884161659746
9393,-0.738383083025922,2.4665893793315607,-4.16334960733612,2.1512160937271116
9394,2.134120552614343,3.8545907674694764,-3.042663807905269,1.0844575870446571
9395,4.778368322332242,4.7139873428693795,-4.613117580308685,-0.2578637300348895
9396,5.551123651238282,2.850665437299441,-8.173663575615151,-2.0294908489840675
9397,5.8245054898461,-0.5901232085031233,-10.587109269885435,-3.0973224822744116
9398,5.595761360606308,-1.9868290277042278,-10.47722877669442,-2.8515203818225734
9399,5.620410865947746,0.3585372247080075,-9.640347220099692,-1.801179417691959
9400,6.424356668228343,2.3992729025206585,-9.49356395023604,-0.1760389796195671
9401,5.204768133060321,0.6471954692550848,-10.27634380140138,0.980074170555554
9402,4.145143108007039,-0.5764706414610126,-10.066624568853468,1.685323835964231
9403,5.713132525247954,1.3001968232441616,-10.42545406790949,1.4505851607658624
9404,6.203426794410381,2.6862684410188256,-12.798959556645363,-0.30572508666839204
9405,4.818060513556197,2.8664266986355593,-14.29102598336045,-1.452881200921243
9406,2.60294716607558,2.543755793617956,-13.972409580612851,-2.6599241758606538
9407,1.801927587060614,2.1344942052119995,-10.831188003188545,-3.5439252718556484
9408,2.5136857760588467,2.920311480979757,-6.970388437657813,-2.5926590069939954
9409,1.0422556409673653,2.9842069081026765,-6.0428858184114365,-2.9517472701134615
9410,0.07947467838402197,1.779703571904311,-5.674524699266538,-4.701870625876908
9411,1.3959394255055926,0.7135716045532369,-3.0532679218512415,-5.072584333379077
9412,1.4544191714279417,0.08785986573752111,-1.1411660372858141,-5.424808868502004
9413,-0.02394319380876697,-0.39380831794565363,-2.78589881173312,-5.869456698638819
9414,-1.5813112613415443,-1.8698546368559277,-6.128103108603851,-4.927507971049366
9415,-1.6684411560251933,-1.7138434390439279,-8.24699209073456,-2.941608842771637
9416,0.5783636116803115,1.0386916640782604,-7.410968587710896,-0.15265575221646593
9417,3.382827564099046,3.26101497555158,-5.565278993440493,1.1593227353811466
9418,4.914867447290246,4.7582236284482,-5.662485398732861,0.4923772107202187
9419,5.205848815973122,5.6029269917337565,-6.809458398042494,0.3715393471207405
9420,5.67213577895093,5.06817332943606,-8.286075466910118,0.4442142240755036
9421,7.346163480804182,5.1629549290663945,-10.636684096421746,0.8434474165531506
9422,8.177816540505258,6.555358755082413,-13.103904829990814,1.0107690921276404
9423,7.149459949185211,6.91501554761798,-14.147467573932742,-0.37077905252853055
9424,5.479145039035686,5.319617393732528,-12.892968682354663,-0.8682590989272574
9425,2.8852817197618856,2.2545738551450984,-10.679580729369883,0.6194547879243412
9426,0.40904358686153863,-0.0901045120338822,-9.01892248744974,2.171047771710312
9427,-1.0365951828376496,-1.1382237630984737,-8.532408325255677,2.4078770423401687
9428,-2.0961674964603167,-1.705151936371803,-9.326738727205912,1.2822691010576683
9429,-2.44989228642545,-0.9248291932772578,-9.945295405197596,1.4058823323465042
9430,-1.864257143033222,0.33813179057801523,-9.957005032818268,3.420469326127551
9431,-0.5187194105257896,1.3797031687034986,-10.894158112567826,5.391314293556151
9432,0.3444701955069832,0.7216474376107269,-13.717702349750045,5.503837826509745
9433,1.3833829606212489,-1.3405657173834986,-15.987990738846145,3.7135533852542544
9434,4.186960882440505,-1.6465119344291428,-16.540216424841844,3.1883045000309473
9435,6.396186511745656,-1.0475703429889378,-16.326034056616713,3.929784707918669
9436,6.901620139144326,-0.11806738654881405,-13.509986223812252,4.565899355319166
9437,5.926159789609445,0.17229532395417274,-9.510892642062789,3.1147879043130167
9438,3.6287348903695653,-1.2918511055424042,-7.650620932485359,0.6612798003210225
9439,2.10520429313511,-1.4591107794157059,-7.66913434551297,0.8746971050395962
9440,2.1735618452989636,0.2769504020146358,-7.450942684703896,2.657179381277598
9441,2.9140234970886247,1.0547408411161414,-7.41326863656732,4.491073779797683
9442,3.0379755111979776,0.1493670471063876,-8.384924047741702,3.9240020629615717
9443,2.4905871422936947,-1.3622643844163655,-6.836559718726996,0.6887459751009654
9444,1.9272574343610058,-3.095796233213642,-2.5515742004591435,-1.6560835314636508
9445,0.7096911575007234,-3.8813458847134186,0.5339991152951286,-2.991910278154075
9446,-0.9741703907326781,-4.37323002592163,1.8330136928222,-3.7747197249023463
9447,-1.7052150214601436,-6.140278584050632,1.8389457322307525,-4.132806579123496
9448,-1.5119519362972274,-6.82189923364369,0.7439260079705313,-4.603510013561956
9449,-1.6403736424101516,-4.927449797295463,0.28908119664183385,-2.7306359822535025
9450,-2.6236500526227435,-3.0859662252073483,0.334349341450525,0.40220342893824607
9451,-3.3261568317880825,-3.395559624156762,0.10532663015435895,1.1238196812386614
9452,-2.3204298036610806,-3.359601130631533,-0.22482906475820208,1.4753037525085175
9453,-0.277978601818454,-2.2062389495661403,-1.1662309905723087,3.0080011032593514
9454,0.23285052305350676,-3.291960003346188,-1.6989843564091818,2.7051145196155004
9455,-1.516130226035647,-5.203695809790444,-1.5526552853346114,0.8918316749481439
9456,-3.3270772099358803,-5.4506362671265185,-1.4905330276393247,0.20949063384454042
9457,-3.177131581940973,-4.489273682889257,-1.2391282104724133,0.6886704190892815
9458,-1.198550841438989,-2.388661337449711,-1.4441510651274418,1.4833463865187353
9459,-0.34838057161123415,-1.6980911767136722,-2.889866700047167,1.4086312326677055
9460,-1.3017831217669968,-1.9189532491595673,-4.181469926734613,0.3018276310252128
9461,-0.5647178839794689,0.5004154232425457,-4.568021597974908,0.47959845662180345
9462,1.3309280147144005,2.384238662074831,-5.887980889525683,1.8539761217630093
9463,0.6935731345368851,0.6341641822445334,-7.163710518105752,1.334409416045897
9464,-0.7073704994014804,0.3083841887965904,-5.821733289271304,0.7754421506980073
9465,-1.0546026911866895,1.8257493542001255,-2.876022261231935,2.213744730663942
9466,-2.30408463820764,0.46201964765005554,-0.6292798323424936,3.274540344321738
9467,-3.7538893314099693,-0.9894053717986011,0.0744823884350522,5.090522250381409
9468,-3.7818349585587594,-0.28232668035886876,-0.11440496392122701,7.994107621360643
9469,-2.5091806467881383,0.36844048513795935,1.0296141039159301,8.070014249845446
9470,-1.0450128182522855,0.6157651532166953,2.5350946776287198,5.509476679142818
9471,-1.2617140264045865,0.35260480425946195,0.545492829301945,2.3105666098644266
9472,-2.661849223297996,-0.8601712641610078,-2.4802005455500664,0.716892239684354
9473,-2.518890845883364,-1.600952148618155,-1.8595177979635935,2.501748425338254
9474,-1.2315321947458886,-1.3179372992065388,0.6063373549572222,4.847656149103977
9475,-0.12160968360378764,-0.5274794557914356,1.003709483412565,5.08589989845452
9476,0.8289100083189056,0.3144631482081367,-0.5999461737908967,3.3726742791940776
9477,0.4839446543613867,0.6067549899291191,-2.1122369274922037,1.1516629756779007
9478,-0.6276813735454897,0.47111170789580126,-2.2871075183466956,1.1429261429272977
9479,-0.8058081274296524,-0.25127990887965423,-1.435302028069169,4.037363258575101
9480,-1.1358546012888795,-1.1394942891902795,-1.6527195036272195,5.50663721268225
9481,-2.177021367455011,-1.57799946885696,-2.687324245654261,3.1822571278630027
9482,-2.185744012829971,-1.6138636463208296,-2.7642430248768806,0.6945729473357571
9483,-1.8833385619735445,-1.7938895553936447,-1.6641221234421422,0.09929522642065876
9484,-2.88789607689209,-2.140770241283917,0.22033522844064363,0.26241682869067645
9485,-4.822590839396276,-2.254841090582537,1.6568225286330893,-0.32444929935716155
9486,-6.77345343752891,-1.9085052823250255,3.061635703081993,-2.617991887286523
9487,-6.110780432937487,-0.5276185355164622,6.051680994864977,-4.7079577102869745
9488,-2.344392731412305,0.9833310023760575,9.1982570337446,-5.439930178460695
9489,0.750365531638795,1.8765296085764362,10.170665522839755,-5.190733012422221
9490,1.0592422657760705,1.2725464183096202,8.490512654323208,-4.3902221327005435
9491,0.7711385730003045,0.7905903232684239,5.156503044723216,-2.997971535414358
9492,2.141948128706728,2.3430197438693994,2.0472149422605317,-1.0457895011187432
9493,3.2324975197208183,2.67726859662003,0.4115134941456087,0.542253719137609
9494,2.560364871139847,1.4429959796307883,0.7325399072356419,0.9959577607278584
9495,1.8255970833495916,0.6012394702856076,1.9232303030754072,-0.3038980490093898
9496,1.9656321954137905,-0.576291713353137,2.2813050385493963,-1.3589652874347224
9497,1.8145897732223064,-2.691189523068515,1.9808244244886124,-2.3167743032988324
9498,1.4164086029377716,-4.156894842969295,3.1879555624959566,-4.563596874917646
9499,1.254788248811307,-3.3580940595709885,6.026779720811192,-5.350329230905904
9500,-0.3178924940647854,-2.1238350193847637,7.980030576328621,-5.581290387093825
9501,-3.2160547022838584,-2.2307526961708266,8.389625009892944,-8.550062283721893
9502,-4.162360479147894,-1.2315403786636383,8.450936899000638,-10.572521085753827
9503,-2.471330166660598,0.8997786259533642,8.641385847053526,-8.324687945184893
9504,-0.829300313420925,2.49236455689921,8.259142849367654,-4.032341020932482
9505,0.2323343992362098,4.805072712413725,7.063134919966853,0.21312194680216306
9506,1.573253241044671,7.326686816287999,5.257522072551198,3.687623078921578
9507,2.067496917364114,8.295241602273181,2.516541591021282,7.5437960964613975
9508,-0.08706792874458476,6.68824090255945,-1.9067911798976847,10.714222178562219
9509,-2.8736405310441286,3.3359832736063235,-5.372775947551874,10.914009593627934
9510,-2.6269826549139372,0.5325501408484627,-4.872215293878723,11.473495575113908
9511,-1.570411333945072,-1.2984845417432944,-3.7876402834424177,10.93969989274453
9512,-1.9084281443440076,-2.2003792138537923,-3.803766600462132,5.710441578601582
9513,-0.9441435781122338,-1.3394955255553538,-1.6428070679438662,1.189348638351098
9514,1.0040561810879884,-0.9164892591694693,0.6511501827455543,-1.2501401532862328
9515,2.6097916716425926,-1.7653580622142047,0.5886363222902022,-4.556610305488608
9516,3.8620476128718666,-1.6036598478950568,0.7009110578781713,-7.546183186944671
9517,3.6675029027440367,-1.0531333557780485,0.8384152310405459,-8.78392051432714
9518,1.9043459528938333,-1.6717150016539282,0.5550650000192073,-8.327050962877628
9519,0.1388005274256312,-4.177525801286232,2.82304332967746,-6.905125213268149
9520,-0.2808649362101492,-5.593468791674231,7.215554838274796,-4.923954869082552
9521,-0.16300722833786424,-3.666925400250704,9.268333392801843,-3.2926353405814415
9522,-0.7394444416396525,-2.009359452335785,7.927978860065272,-1.9905797439180644
9523,-2.561435333904299,-1.7473718857845788,5.316072080072766,-0.432650425456229
9524,-4.560833219910603,-1.9423325974542907,3.4117560002790563,0.8286645659807933
9525,-4.7458878893182534,-2.865769202562607,1.5329873396614262,2.3983552583023813
9526,-3.482715800454657,-2.702735312700578,-1.6624995553008017,4.667651797626872
9527,-2.598660696143658,-0.9946785613955348,-4.913524162957259,6.068476924298353
9528,-1.8635288972036095,-0.4519020978100635,-5.968522804553194,5.657166760421208
9529,-0.312993864772433,-0.5846041493500234,-4.584287754954741,4.601747021457914
9530,0.6831166960796095,0.3860959234123116,-3.0351805759139387,3.0993473130174385
9531,0.292953412577224,0.389180686663846,-2.9501827536988534,0.22353279640478915
9532,1.1281822459216384,-0.3472399854601459,-3.4295007286806625,-1.4676072081462739
9533,3.3520169470120127,0.09551666042380068,-2.813956648227562,0.06445963034273361
9534,3.5316522447322547,0.4426433110694013,-2.802444568333748,1.5358988010152026
9535,2.594954643169443,0.8585875060199846,-4.922274682508234,-0.2785035393464925
9536,3.510749443649418,2.2980665802526263,-5.66300710994033,-5.187961057919119
9537,4.175764061486756,4.002145762812589,-2.755945151372841,-9.189442234815811
9538,2.759582847298936,5.58823683694934,0.25980123217366213,-9.851913193437367
9539,1.7547583093966062,5.5635247679583015,1.1738857887530583,-8.90874988848955
9540,2.0270223895214943,3.6710623709487673,0.7287516109051213,-5.5789205137216715
9541,2.56856396287547,2.571853708324005,-0.6438503687502692,-0.5418010210111606
9542,3.3184148588546143,3.520538762427775,-1.2870580358119033,1.9135571173037407
9543,3.915817744165213,5.297633632994147,-0.4828092058113103,2.315661358674073
9544,3.9825110671551824,5.664426137717646,-0.005551130392981496,1.838834279084331
9545,4.470465187192212,4.989703461614656,0.20571344785496853,-0.18756220156407852
9546,4.648994001281,4.423064508470423,0.6893946472512333,-2.170968559720213
9547,4.134810024293836,3.3637707039800095,0.8372924668982709,-1.6842600173642106
9548,2.9582742778602147,2.0862445956470164,0.7745075484564617,0.3587959206768479
9549,-0.11175829426754094,0.33883605869641525,0.6094517488700728,1.137596130375278
9550,-2.7001208584363035,-2.3852067014483453,-0.4284843422328397,1.1019439754666196
9551,-3.5265464612806894,-3.8507959753571703,-2.549302519919204,1.5929779060405291
9552,-3.5334800879792847,-2.4779390870307285,-1.888922444512487,3.564726120580865
9553,-3.1285269443716857,-1.4935135237689225,0.5932111169863935,4.423940975892689
9554,-2.5330950947814093,-1.6990684257934947,0.30634943255702307,2.8625503412290727
9555,-1.4372712076627698,-0.22150126103517348,-0.11096669052057268,2.544927951209468
9556,-1.6028149166272467,1.5766574579549872,0.039135470450396836,3.140343789777064
9557,-1.6131978637219793,2.834549023758832,-1.2753626447186712,2.065752089019122
9558,1.6015775716898706,4.9378032742364795,-1.3367940313016569,0.8198206999510084
9559,3.194329601948142,6.5703450019377065,-0.2602157013380816,0.8034975654533765
9560,0.557403940042319,6.03913255426033,-0.885411695984414,-0.5741069296920095
9561,-1.2103762215760288,3.0922895502579206,-2.1022104304624363,-2.708612396456784
9562,-1.804595914902837,0.2428101330949588,-2.483052940731503,-2.1136522463754472
9563,-2.182346239846074,0.021862426618486364,-1.6027306221072048,1.1257011645365818
9564,-0.4539792493361151,0.23624152944620233,-0.8234581635649245,3.6828895440927996
9565,1.2293933479042165,-0.4511770597627589,-1.9102246701491001,3.5009769281583627
9566,0.19946087447254462,-1.2603642124266674,-3.135985246512924,2.0132118465502935
9567,-1.191873484590886,-0.9397446103728433,-2.14300658771189,1.298721980282868
9568,-0.15694616299327305,0.6204669726170693,0.34468102746415724,1.6813041154424775
9569,0.9380478355478065,0.9684828015575319,2.70214153730766,1.5946477553752996
9570,0.29319890395401527,1.0495276797392625,4.529274934956313,1.009432390377539
9571,0.3669457751973869,2.7823224509220403,5.867124590341639,0.7751375635271337
9572,1.1924555776035735,4.549178534399001,7.000678546066495,0.162871600503524
9573,0.591014694596548,3.735461798836292,6.949450679401826,-1.5384754446569868
9574,-0.36282188169428786,1.7026816432606708,6.176127213918368,-3.422822500375085
9575,-1.1494391301421847,-0.0721489265488866,6.636251471296962,-5.126105429939057
9576,-2.8370401535903675,-3.1386437542414365,5.509404680839993,-6.2563876858517675
9577,-3.260065612586505,-5.494377021071431,2.6699926694270126,-5.659871480893701
9578,-1.843734014123705,-6.25344295977544,2.413821270584215,-4.993257559837753
9579,-1.8319009482229944,-7.38420950975967,2.140561058615081,-6.317696523361143
9580,-2.692199293717547,-7.554563903437525,0.5102744340580677,-7.125910757974584
9581,-2.1949280208532853,-5.905169246351519,1.255863681620204,-4.627554840704422
9582,-0.9421885822828943,-4.256127465769444,4.410938923348852,-1.5402538094981022
9583,0.31763313339042737,-3.6585217195638466,7.488483307411222,-1.3577852524096006
9584,0.6486199184559047,-3.035573655419989,8.718577535150628,-3.2345603803570895
9585,0.8805206270386976,-1.2384102569412885,8.663103695562462,-2.398400667871411
9586,1.7498002634258278,-0.25638542847342755,7.030409090613269,0.7775132383853922
9587,2.612255412662118,-1.6116724674109772,2.8059696196008863,1.9460097840065433
9588,3.693133761280506,-1.9976513858932154,-1.239992450669872,2.0731965792197746
9589,3.931238037190723,-0.8179162948398007,-3.1871360211337105,1.517239144842734
9590,3.3012710339570557,-0.45718909060472446,-2.66009891711883,-0.6723182062101846
9591,2.8887526614143137,0.33483472343414955,1.1113810215165087,-2.319017061404846
9592,1.8014137945128752,1.5007565434511647,5.365154198315547,-2.8174404433982136
9593,0.8589195682385135,2.614999084024354,7.948979280839699,-4.502152945312985
9594,0.843431390222187,4.2051198451338125,10.027459149341892,-6.584383114493792
9595,-0.9978685202000619,2.2172776784860497,9.792361811580342,-7.682720443812831
9596,-3.0385637974997874,-2.9426072215314467,7.794250738859202,-8.209858685194355
9597,-2.1822450186419107,-4.347959470530408,6.979076819861995,-6.6655592711949625
9598,-0.8017994383411426,-1.6978448719885335,5.187200559501964,-3.430916386261218
9599,-1.6162431025223136,0.4880926829587342,2.769989087628209,-1.0360031039600643
9600,-3.423956134803024,-0.577829590844158,1.3146762612640615,0.6383739862160567
9601,-3.3677326650679054,-3.104086727797364,0.46894838968374375,2.177136886169001
9602,-3.284140922173498,-3.9925482916185038,0.25498987773418313,2.2057693646113385
9603,-4.197862116553452,-4.077648190742636,0.5698594008050372,1.8926573079279396
9604,-3.002995130597565,-5.07084337692549,1.99084643872069,3.0924551827863263
9605,-1.294920926605486,-6.028475325644768,3.1436723427248463,2.9108626396428834
9606,-0.8041874152513078,-4.859803172400584,3.767652892793394,1.0024551116244003
9607,0.7687638374198656,-2.0376508927046766,5.3061342054933665,0.5053257674944441
9608,3.9789899962539077,2.0298209362637434,6.009154844103751,2.0311111755867777
9609,5.7434363084644655,4.673964560330478,4.065749152054588,4.7818573961364255
9610,2.8024186668192628,1.902983440106563,1.5774519256334991,6.311626894896188
9611,-1.2575153284088032,-1.436824337543876,0.2676754252068307,5.643830389916289
9612,-1.7772448280783053,-0.3518515983275603,-0.6614198586354285,5.220742606540207
9613,-1.2204784742715697,1.3091268485228922,-1.3830706171268101,6.705518821903797
9614,-1.70257280752827,2.2513700235371887,-1.7396209547806305,8.430295545120032
9615,-1.5235704419335672,5.0134292948311465,-1.6838317911490117,8.625324591271855
9616,-1.6934500061580409,7.875338987275793,-1.3810238975389595,8.710057850422729
9617,-3.5040995550076732,8.992896562759748,-2.2779801816902285,8.67564908761
9618,-2.3374703823707086,10.218929168877873,-3.91391125226035,8.078453541627447
9619,1.840588923186205,11.381939514145689,-4.214145313802725,7.287395784381639
9620,3.387865770023935,10.240427866891851,-3.7459765794715105,5.968195260003951
9621,3.2387875221382987,7.543951363033688,-3.7573688309207594,5.408386906821939
9622,4.235979070976677,5.51909106419885,-4.220687606011215,6.484784138138815
9623,4.591132365901275,4.474779387146101,-5.07800843497911,6.606681313641336
9624,3.6470925978742708,3.6802189616014527,-5.664970735915592,4.430526637331098
9625,3.685108646290655,3.506153626326552,-6.7030335931807405,3.436689809500904
9626,4.543543165602477,4.100671543555566,-9.06743115041205,3.2977457651972055
9627,5.633401539132387,4.1730994875082,-10.277375612190761,2.6147229419144353
9628,5.811323994329311,3.3646929697854864,-9.53379085612018,2.970671456943001
9629,4.460336177286701,3.3270234359805215,-7.155259147973558,2.7315024491483197
9630,3.554115493614799,4.194691748635375,-3.3265300405688474,2.4751497244682397
9631,3.333339931028815,5.649278191271393,-0.9175589404309688,3.752749470142457
9632,2.9159642014754117,7.0164314700145605,-1.6663774566784708,3.8304148937027995
9633,2.4069097019611108,7.551054717789318,-3.52886326213629,1.9898784001838397
9634,2.4557581530308883,6.8792890060884195,-5.378023938587576,-0.6761334427588541
9635,3.286392512742601,4.669885292506795,-7.681470691446178,-2.032595453983652
9636,4.242091766952594,2.7717548276237274,-9.939438527202448,-0.5669340499773909
9637,4.312831086038183,1.0792246184570258,-11.637977311827873,1.00643761891491
9638,3.5926142033017516,-0.6499403651442768,-10.524141288767844,0.9879090794576844
9639,3.082652067530945,-0.29769295755369013,-7.408021910710408,-0.05887065789823648
9640,3.440247676099782,1.5059000790264931,-6.267216405688734,-1.011850595953791
9641,3.8269120213235754,2.175818489542685,-7.344661353709409,-0.3957909020695216
9642,3.288843399191488,1.8849793155245946,-8.819840730470053,1.2349368831783918
9643,2.476571722027076,1.6836725328148123,-9.054772027967424,1.3939311972845825
9644,1.6437319371410717,2.2936358558611794,-7.613439116018186,1.444651818664225
9645,0.18266387031308126,3.22400454539988,-5.343627634152702,2.644422603198373
9646,-0.8666615472969558,3.429263357904082,-3.6854261396338077,2.0339522804795864
9647,0.48506408208765944,3.9410955256351357,-4.55575406748459,1.807796058637325
9648,3.348797612917319,4.584397362282395,-7.764705039299105,3.255275220281202
9649,4.5340260922656395,5.142597916375318,-10.91347100520672,2.954486431624633
9650,3.4415988128014843,5.2058209388912555,-12.51500118548929,1.276465965781854
9651,1.6280146987352762,2.445571038451695,-11.755995207341817,-1.812897281949972
9652,0.056802125560759156,-1.754623641120026,-8.595054292770962,-6.212158407082269
9653,-0.11647223672267001,-3.4080742668471435,-4.536003375198491,-9.155148422410479
9654,1.664776279122978,-2.6931236500276468,-0.7178227406003171,-8.633946080308261
9655,2.978733067395579,-2.8908626840158904,-0.19138026608163305,-6.037281099146117
9656,2.731151771085801,-3.791950311507428,-4.2079930287427,-4.872069699092818
9657,2.2593340684682017,-3.4393135448847607,-7.986349310184699,-4.42603333622205
9658,1.7023109314304816,-2.6572837069106905,-8.607926645487318,-2.804631383379596
9659,0.7648474218411897,-2.4198542750081296,-6.774254619747301,-1.0062108693300993
9660,-0.1941908853251524,-1.9391566101147684,-4.648914206802917,-0.31982167518647187
9661,-0.35372777175313164,-1.3773466099862648,-3.976141014574506,-0.23639816125468663
9662,-0.564013563332807,-2.1799473450948796,-4.241939586769102,-0.40505287771280674
9663,-0.9632150865943404,-2.999033410190085,-3.4398589707280993,-0.4544674216077045
9664,-1.4012965824055805,-3.5777108408138605,-1.850771111058649,0.6990207895342272
9665,-2.5255514264413175,-3.707570050581254,-1.3338615965018994,1.2073893745184425
9666,-3.126810075882616,-3.0953662113381366,-1.2329026603253794,-0.8841445397649106
9667,-2.369350849997227,-3.9595818366550404,-0.7883711703716181,-2.7452467883439433
9668,-2.1756690105932632,-5.245824010251704,-0.4950105357752549,-2.574828742413282
9669,-3.8950537616100664,-6.660171912359865,-0.541161565479841,-3.386254697228073
9670,-5.007624567373613,-7.711055153955344,-0.02179753822109627,-5.1361203811726535
9671,-2.8729832309738548,-5.411191951353378,1.6440294900287615,-4.482607279557316
9672,0.048162279769071864,-3.270946897346411,2.5191678132849353,-2.252053619650185
9673,0.5102325161501801,-5.118054134493689,0.5481241172250871,-1.2007168770373633
9674,0.5633049553804076,-6.671598790356008,-2.490199267573082,-0.4342779507349878
9675,0.9599597936071729,-5.916123285340803,-4.221476680354903,0.2578418478252963
9676,1.203783862896226,-4.15725264781869,-3.0466632816489447,0.16719501406866297
9677,1.6497289398691042,-1.8237874148080102,-0.2998644310442693,0.5164665067731048
9678,0.6847416408272787,-0.989136975558072,0.32049972054157116,0.9681243710032221
9679,-0.877095464194477,-1.2920207406217015,-1.7275236192412127,1.9497076684200136
9680,-1.610121385620928,-1.7095993077417369,-4.387802253385441,3.0098935020240853
9681,-0.9186372990902353,-1.6579808116464747,-5.934827961960718,2.4634975727265402
9682,1.111036169355648,0.4333932929676654,-7.206204877782293,2.4237881432436525
9683,0.9390689692105213,1.3253160171794236,-7.167812612108972,1.691765538351793
9684,-1.5347909461832243,-0.8584940992824859,-3.069870417207434,-1.3145063847292022
9685,-1.9152734695068305,-1.8123627429355467,1.8703722158433551,-3.359319009790933
9686,-0.9624872618058827,-0.4545858580790179,3.5272824823746967,-3.8456066944875387
9687,-0.6369912698745408,0.9637417980893193,4.132395083655987,-4.1400958486209
9688,-0.12336861247090958,1.251617550079804,4.338877211564908,-4.782180598803825
9689,0.03829241190957089,1.5423986772101477,3.6978604965669772,-3.4605965878819265
9690,-0.4250729936861912,1.8301406187422928,3.4881795077635,0.35449722100049774
9691,-1.6551495625637158,-0.2995448145438347,2.4036752117630633,2.3320193268122793
9692,-2.7429177834800216,-2.95381605007991,1.3854646016779661,1.4659178730387583
9693,-2.6633509439306478,-3.3131075344271252,2.2248311227085424,0.5965553561718698
9694,-2.8556504883680476,-2.6570705357849587,2.538352816156494,1.1010072549679437
9695,-3.3494947127150243,-1.7694480076559629,0.8293521847066945,1.8307702094494243
9696,-3.6154478875069977,-0.9835129964222913,-0.5477649888398735,1.3525716464519204
9697,-3.711887988159675,-1.537364192095753,-0.2520360711822413,-0.6870051483208688
9698,-2.4152413956101673,-1.3896772874432832,1.1774915192546511,-1.216657952916489
9699,-0.5184004344820491,0.6827005333067027,2.8033009878274333,1.0347426758536105
9700,0.5310632505375626,3.5498435557826387,2.628917704392527,2.978172478174705
9701,1.1989906792273781,4.9452447603692855,0.10763660750020572,3.011008593181033
9702,1.8398514198000588,3.6674510430291267,-2.4258574211905843,1.081450682907622
9703,2.1805778099760427,2.443060881979512,-3.4520046156998965,-0.6033233197692972
9704,2.6107932938343246,2.420993368866374,-2.8421197938952503,-1.3399100164102244
9705,3.017621612046001,3.1665794234023172,-0.6278411891557601,-1.5618120864405836
9706,2.8846047420792744,3.484128093269108,1.1215122680550962,0.23339434588718008
9707,3.02273624072574,2.742060168106356,1.175220893373778,1.5459180806510002
9708,4.04406486146984,2.7880691541454925,2.6165595908420225,2.149890190049899
9709,4.137796420908012,3.670137569473014,4.332919424199718,4.2040313900219815
9710,1.8027903114873831,3.466709978111679,2.116087419749426,4.93572774376684
9711,-0.8615736528427944,3.111957251069368,0.31581524584753673,3.6583884480441022
9712,-2.634903183551415,3.6679875589465514,1.4080102504114589,2.266429903672941
9713,-3.7869269314122618,3.792714637689366,2.8147428181277845,2.140889858433139
9714,-4.5384124275812034,3.67822642938141,4.938672383561259,3.063043379242072
9715,-4.323725079317052,4.311439281621657,6.6659526967328455,3.6305392775402865
9716,-3.799740689058005,5.112637341672812,6.140451621913863,3.2584738106277187
9717,-3.68776388968582,5.357778692112429,4.810353823204409,1.2839484452105319
9718,-1.548992055055281,6.143490374274191,5.74458754127487,-0.7654068090919912
9719,0.5019131047221179,6.559037380940984,7.491946887851411,-1.4825579818748416
9720,-0.32395761120401617,4.984101798923017,7.4851651303133435,-2.130211725029117
9721,-1.2522724793167612,3.4133376595599296,7.047045622592596,-2.6671245808551447
9722,-0.6545371889423407,2.7961784764313458,6.4224451293699065,-2.364064622234689
9723,0.09883854459448542,2.3702557034049416,5.962618591717495,-1.3929662354647965
9724,-0.08564980971978706,1.9484163387914297,5.729942777229361,-0.1550181991314748
9725,-1.1369228296998384,1.228115184532578,5.223933135138597,1.003739310008994
9726,-3.264833464617869,-0.6432112075355132,5.246625954043979,0.7907989419595453
9727,-5.278543668895641,-2.781161272295099,5.825095224700362,0.719542026723314
9728,-5.693791338930767,-3.3375851120765736,6.526282455694108,2.3393983348185032
9729,-5.229208552643636,-3.0394576722299633,5.815122942903389,3.068725307171608
9730,-4.927788631808983,-2.2970657893346864,3.4736853867642865,3.100370801052131
9731,-4.335982370720609,-1.5818055713827723,2.215129064427918,2.7569953220740917
9732,-2.3571285281989676,-1.3388843455758295,2.9047401219853954,1.157284025617344
9733,-0.15000170888786274,0.027877762568954818,3.9858032629481035,1.2277107463705015
9734,0.0029011593828614304,1.2093583505041772,3.7819612939163547,3.6005770198879854
9735,-0.9002524031142174,0.617378256619453,2.118233335192129,2.999228002424577
9736,-0.37819076925160827,-0.10702233956804644,0.30324458269582977,-1.363592077485044
9737,1.0295433937356333,-0.6603419626189071,-0.7219312495941853,-5.188593184127556
9738,1.5211451158313534,-2.756032723565843,-0.6695460598770817,-6.626010094341981
9739,1.6830117245882859,-6.305304426602481,-0.5020153911691219,-5.281625924723577
9740,2.5469772957561125,-8.495360377004193,-1.2301575969775724,-3.0234365812549773
9741,3.6174008703989977,-7.717424783876874,-1.3764728401092938,-1.7150043565758375
9742,3.7665492475714184,-5.256790770612564,-1.3880510353107092,-1.0585129966454083
9743,1.943141799114165,-2.8787969686724044,-3.460733830128993,-0.444498000541537
9744,-0.19507067197579028,-1.492010608157695,-5.640384159993697,0.7852707670229265
9745,-0.7479692379989892,-0.20900363836138608,-5.817398612770087,2.8739728049539925
9746,-0.2592522127754463,2.1380167438408626,-4.840984316812002,4.914066801707201
9747,0.275978257218347,4.289908720997386,-4.186923638158081,5.8381484517260045
9748,0.6213281621516693,5.090423926473209,-4.025821968607131,5.011796136261915
9749,0.9836776604492431,3.8872789240254613,-3.8068964410806014,1.4986650241690112
9750,1.5387850631340592,1.0583798609305697,-3.6848562717619524,-1.519746255335919
9751,2.2023774658449726,-1.0455750065865421,-5.069110741399437,-2.2394603158038415
9752,2.4788569026898135,-1.3791984634020067,-6.9921263124972555,-2.5207314730360726
9753,2.079166859826202,-0.6410337276737869,-6.806758048270958,-1.666811594344044
9754,1.1580270142064557,-0.11191693936021432,-5.7097741952409,-0.8097255318889802
9755,0.28541620361592024,0.11704273775342396,-3.882644119593362,-0.6255875905705413
9756,-0.970484477012489,0.3063540485644528,-0.8938232595785954,0.49628377694207426
9757,-2.4406982540557633,-0.35820159068535995,1.0143536895699659,0.30925878241891336
9758,-2.117340840318908,-0.7285662145592506,1.1348573419393755,-2.348156577267511
9759,0.5472947394525179,1.5496577222757015,1.2208709937695903,-4.334666631606834
9760,2.87177468723357,4.408176687289615,1.0805039353290107,-4.048411463504197
9761,1.9901405637989287,3.116425719269659,-0.6505360637149841,-2.6823242137720444
9762,0.20338275463259692,-0.5053074425942679,-2.3110452006408333,-1.692661003314774
9763,-0.6933368387085057,-2.6135719677558185,-2.417683138739037,-2.5591325940324006
9764,-2.0007350290337564,-3.3392712290189785,-2.380238410785363,-4.076102642175432
9765,-1.736211041341002,-3.6155988329665294,-3.260112808695454,-3.316678770887368
9766,-0.1938235778217218,-4.542281383961972,-3.566915774046582,-2.142435340091852
9767,0.2936001749435708,-4.995525445871465,-2.4308694829776916,-1.317871371104386
9768,0.5930324397668498,-4.155446927864317,-0.7157503947754598,1.6204397209327506
9769,1.0233850309815309,-2.751894912894619,0.841262683036681,3.1406877543621428
9770,1.0514386874168118,-1.0738406369886737,1.3738770477902573,-0.15471382648579252
9771,1.2609203432748568,-0.3615496619560782,1.2581227322483086,-2.359983073957853
9772,1.6014872761012198,-0.24175029417824215,2.3302151604893337,-1.1484695403479346
9773,0.9299771572171646,0.48571856668533453,3.629335987957166,-0.9167805906008175
9774,0.9197030974868347,1.0287516069987064,4.34005474658451,-1.2782629102933816
9775,2.4927262768690888,1.559330543983858,5.05388038738805,-0.9191662393148566
9776,3.152957784950404,3.176221233859541,4.713786662947524,-1.1529788091577142
9777,3.0573603669393226,5.2525330880828465,3.537629572852343,-1.4467102568394723
9778,3.5603607341535266,5.790575676785805,2.0823073208703855,-0.8151855913355461
9779,4.133625761273947,4.35376849972721,0.6637202238087081,-0.08856084597023425
9780,2.696126263766799,2.3531561274508723,0.38210414647330326,-0.18199399061651667
9781,-0.638794019635683,1.528689862075648,0.46900804541747493,-0.8382311441340962
9782,-1.8475449817252796,2.8879495605080563,0.27699705640486494,-0.14824516469707305
9783,-1.1065374087335587,4.548581043169376,-0.9547627678156894,2.527792176022025
9784,-0.8541050916221546,5.364806563711376,-3.558882288964833,4.787581874777677
9785,-0.007065912633467217,5.007953025649348,-4.667308078636067,5.303043451793516
9786,1.179886129795167,3.355868745631501,-3.021189272166798,5.901269625065136
9787,0.5727707845023863,2.3109628375847815,-0.9463982706758391,6.291587098811155
9788,-0.5513787627025241,1.8827049883756188,-0.5643458855304405,4.267156363774726
9789,-0.058664730471680526,1.9620757681678975,-1.4500599016285143,2.5930711470756616
9790,0.6812518742969691,3.3330476635247113,-3.887931116319715,3.0491985299248436
9791,0.8910154892385342,4.247797891278568,-5.997530649371004,3.6407426184887863
9792,1.3145228276050296,2.578632299573144,-4.794767152851487,3.8566363479230663
9793,1.1754188082921497,-0.873173344807054,-2.4600720497699387,1.9149983349308777
9794,0.11768426585900217,-3.5671866241727197,-1.5223427607598123,-1.5629306130393907
9795,-0.6952923356030072,-3.9540388847715726,-2.0493795263632544,-2.4947625703461007
9796,-0.8820515765909804,-3.3757481405252436,-3.7966232957360857,-3.132580509446931
9797,-0.2929093166653035,-2.0601384431196657,-4.637989954069921,-4.547656097019646
9798,0.7448647613280235,1.1152196701963897,-2.2233567481278316,-3.5542609667554874
9799,2.062908651449315,4.645572536871921,1.047310311098223,-2.107358590361551
9800,3.8217591083444966,7.551816822605813,1.4691316665492595,-0.46885606673683455
9801,3.0194179287642036,8.646659165750417,-2.1406849601519164,1.6565198146897508
9802,-1.48340983887626,7.121737478253164,-6.829736315854798,3.122672221739989
9803,-5.501973191895656,5.093648771440185,-8.978931647272084,4.9578023723394535
9804,-6.433151582839747,3.879772594334684,-7.143112154833778,5.515262528305062
9805,-4.620221420567385,3.3432572637691873,-3.07424898280361,4.376459082500249
9806,-1.6514333251859215,3.5722287087412226,-0.35816826490361775,4.091942567731298
9807,0.048903961230445825,2.2111653131470086,0.17992655503078647,3.5115082474185684
9808,-0.23071131128825412,-1.5475182813460011,-2.0699642601335464,1.7798824987417512
9809,-0.24339810894642405,-3.744040650052465,-5.242299138669981,0.31575058137342593
9810,0.9821226628419513,-3.6277610275530474,-6.522982997541158,-2.4151357256803774
9811,1.0144240171792673,-3.6231706589640744,-6.205654661558509,-7.475347347352059
9812,0.6663531761664094,-3.4970521259992657,-5.346321495671645,-10.841926224434944
9813,1.6528003780292768,-2.9853148339137294,-4.231212455424052,-9.616315613882701
9814,2.0935631904816736,-2.7680865037867894,-2.754839228761103,-6.090611451090362
9815,1.8929154026112505,-1.459535597523258,-2.3862167756986636,-2.334948823055329
9816,3.157374097481366,1.4451568185813604,-2.6674638920942066,0.6120190641165444
9817,4.072273871082239,3.1720908257322744,-2.895062357322943,2.0085822502675357
9818,2.57940538627269,2.697885168031709,-4.688775445176775,2.0717526035368303
9819,1.5930155475910683,1.9618777317997662,-5.474720829570418,0.9528377360512433
9820,1.2322709702023071,1.6780494988275159,-2.701008833360456,-0.4194350187638006
9821,-0.4970783546284586,1.4956320461458843,0.6075285751324753,-0.9491830254317856
9822,-1.952117313798348,0.7919279349375576,1.1490726002852867,-1.8974032057980734
9823,-1.931996708706282,-0.3247823098317534,-0.7073431141150526,-3.0578100322752206
9824,-1.5658930480184277,-1.2974675426918245,-2.88572691423146,-2.576487460989547
9825,-0.7271525412282607,-1.7047649293526963,-3.5854506043469465,-0.6616881719148633
9826,0.6377414686076099,-0.8634184160515826,-1.8720921783876148,0.3538460370591385
9827,0.7935219749461923,-0.12734837826721665,0.6763708126856706,-1.0734450413640217
9828,0.7106429390207669,-1.143383505033263,2.183397467229707,-3.432190508414617
9829,1.9186610967013957,-2.5382004750963407,2.8380896677356113,-4.124774852839362
9830,3.5104897043028984,-2.303723935712772,3.8467191378935626,-2.233996864222789
9831,4.917726030136711,-0.6341191183352339,4.466729664255621,-1.1090557008490138
9832,5.438667183614326,1.1800610158088332,3.0326150435088426,-1.5623897465108196
9833,4.869624782685306,2.8478926349448175,0.5332760029218202,-0.5579343439292093
9834,3.998458084870568,4.244248940844319,-0.31596309416934665,0.8695893506974817
9835,2.560006944680787,4.046380779403831,-0.04863474505705857,0.8527736884380435
9836,0.27489195357640617,2.057608991495228,-0.8017009137233897,0.5485541636682306
9837,-0.9472514055300956,0.5401652675748778,-1.4050665989619777,1.8289734944290754
9838,-0.7168877077646872,0.8910838594248314,-1.536934656830048,3.2282290378614866
9839,-1.3221299186538535,0.8891195164032909,-0.6201734640916164,1.6886773648718154
9840,-2.7002009248330543,-0.7164487730915371,1.7400845977807773,-0.23034798321079653
9841,-4.146164744722206,-2.369885993017638,2.9478212122581557,-1.4025277450873583
9842,-5.599789064190865,-4.114051500381653,2.5978715055911277,-3.5197500809614586
9843,-4.606353353390601,-4.770692905399088,2.423375272666091,-2.727475575696405
9844,-2.8580306222732843,-3.3389666466523984,2.79839278189578,1.0407345656768985
9845,-3.5989756030326543,-3.260519073543171,3.9574091819420123,2.3445179856266964
9846,-3.516197340986839,-4.101836800649999,5.0395950826053975,1.3643194725270789
9847,-2.275644770886295,-2.677175948170268,3.9879598855047877,1.4270871851539506
9848,-1.59452151742764,-0.8729514730307816,2.1244244674876467,2.304124582030301
9849,-0.23242122450210645,0.6371751560547914,2.084640813349833,2.685385647496813
9850,1.5693649696389427,2.000629443765909,3.0239889275269856,2.1418859532584675
9851,3.1844514921951257,2.143205281494498,2.8633411778168374,2.4922345671405695
9852,3.4881964951373683,1.3032137682650606,2.658087217378553,5.241371361158718
9853,2.566914296655784,-0.17219213398901728,4.044593496948246,5.06582145053861
9854,1.9733322515998153,-1.2849354973747853,5.943215395273331,0.4515735825945608
9855,1.9172140954114758,-1.131314943318942,7.470662294993678,-1.962252010950705
9856,2.6436146127241704,0.22452848189359886,8.319904567081736,-2.0623158810945816
9857,2.1730554191991525,0.5653832099531786,7.041825494352024,-3.2017585911396065
9858,0.1575965339218288,-0.8937421815986055,4.981304702573386,-3.3087179188196747
9859,-0.7925689744712203,-1.8761020661081032,5.3300335646162775,-1.1184782030849845
9860,-1.7116525535060936,-2.189986029095666,6.206576590798319,0.5099704503113477
9861,-2.617922626788212,-1.8190420462937908,6.29843383100962,0.17891694159486654
9862,-3.6231659165644334,-1.6003412173235028,7.068766935752758,-1.5273411598320181
9863,-6.274021815134732,-3.7232205528484723,6.518480865518039,-3.285070982113299
9864,-6.422975041929597,-4.999477538391271,4.1478801018694185,-2.666473141895431
9865,-4.004515171017555,-4.677515110789359,2.0841942093144374,-1.9318492485924865
9866,-3.96539061397903,-6.1365445034182216,1.1836606044615667,-1.8386802116403094
9867,-4.911248157829575,-7.02786749544037,2.2984786972792937,-0.46186400300165825
9868,-4.8843717517723215,-5.924551143826758,5.158273730574152,-1.2123858920816206
9869,-4.116209136990534,-5.079228650255345,7.289860276609319,-3.3710845467802515
9870,-2.7936444920900696,-4.613166046900203,6.923901841007173,-4.024418442045124
9871,-1.3709877764953382,-3.7243802430187904,4.6798473673591205,-4.238163663441083
9872,0.7029572094462977,-2.517112226796793,3.2283829644554367,-3.4564906569113854
9873,2.6055289863286464,-2.009600953495835,3.9285888900638555,-1.7801855946736826
9874,2.370912493953296,-2.0822168499206044,4.3719583579374754,-0.7661016903707307
9875,1.2593355756961782,-1.1270244752594476,4.133893564515518,-1.6724545474163197
9876,0.9837880639702972,0.18540098973335395,4.3538956810013065,-3.823673683801237
9877,0.5213810262217684,0.15496767366459605,3.5120633060413144,-4.208997769610859
9878,-0.2930039642493728,-0.4672448679354958,1.9604004417019127,-2.7114712624765493
9879,-0.6874907122004765,-0.6563447729348653,2.083278500111772,-1.9818973641027393
9880,-0.856729998118387,-0.15364362428738512,3.3530079973922335,-2.0459785698863793
9881,-1.2293961574781758,0.5633955771999795,3.795735247670519,-1.3679501874605347
9882,-1.0496737706858408,1.7944227698616835,4.8764757930903855,-0.023819915142136217
9883,-1.283574151368504,2.849681016916887,6.67699154767152,-0.08496547719562075
9884,-3.399755715061161,1.121260415918438,6.275082279299521,0.36575323099061163
9885,-4.741957283810857,-1.3318318291350324,4.0978762133573134,3.1033701990299827
9886,-3.9348214981841845,-1.9052060726446554,2.9513076225095167,3.3798676887343766
9887,-3.1612514088252457,-2.531858210833125,3.5332116410407473,0.48058003314758413
9888,-2.866078952178537,-3.4323596878007714,4.573659411718221,-2.7002644698664233
9889,-2.0485552895630676,-2.7236898635271207,5.7350310418393,-3.2731555385761744
9890,-0.9828027998722246,-0.6673264928214953,6.707447823059123,-0.4472212555878404
9891,-0.13214081893910615,2.2464087833504043,6.5217283296032615,1.680304083260928
9892,0.46496228203991224,5.073020545272341,5.682616776605981,1.1352096112421564
9893,1.0244296707547278,6.4323969073587675,5.665655113316925,0.35190964877154995
9894,2.0102647781549594,6.675535596812638,6.6873256141004855,0.7810084685204797
9895,2.0777559599038256,5.8851173064287075,7.6278409039093615,1.1459065664765342
9896,1.2395196758672986,4.463496681136649,7.001717652986497,0.4910305147484587
9897,1.4190675487805537,2.5329449573359604,5.036901381159781,-0.9157866924477133
9898,-0.3061382055440981,-0.8047092603925793,2.081079410400968,-1.43426538131775
9899,-3.6620189112524546,-3.481516334303942,-1.6966765392632752,-0.5291313710905531
9900,-4.002533880114686,-2.9551642490612218,-3.7800092860792476,1.0703852427057126
9901,-2.3372335552483525,-1.2889559972635758,-3.182495604488418,2.5986514518731973
9902,-1.5740206073919891,-2.263528137802873,-1.4268133719732905,2.3201386494526806
9903,-2.6537168802916993,-5.236107451963458,0.6372455845527183,1.6971561345559245
9904,-3.9372017586467396,-6.812700547665629,2.3176273449397735,2.483277893610017
9905,-3.7564840056693147,-6.278215432508465,2.41409674675937,2.488331300345776
9906,-2.1744838669447866,-3.6264600612657345,1.2129193733872812,1.6216691400998824
9907,0.01936972845399973,-0.11007151028065362,0.9466824536963128,0.1720598394761732
9908,0.8517154912158325,1.6098824725205025,1.9176301840351702,-2.2443079339322964
9909,0.2724639761861832,1.2536784168282096,2.980447102912762,-2.988327816746293
9910,-0.005321008712053266,-0.030667906296221598,3.355295563402419,-2.4914669321463827
9911,-0.4830667904280185,-1.1426023326979817,2.8386569368456156,-2.841182332848274
9912,-1.7661638311733117,-2.2748919355553516,2.8809792492092594,-2.2067358642167223
9913,-2.808139981986272,-3.022427198888925,2.5847751020028262,-0.4067791402285829
9914,-3.6693108930974137,-3.253974134638142,0.452600639690249,-0.22608198822235126
9915,-3.766328960096524,-3.5517217688825395,-1.3652900834030763,-0.5295213911545229
9916,-3.252872184515213,-3.1311488137228554,-1.3712525521193923,0.0481612482445139
9917,-3.1653270981692168,-1.6049175292575544,0.7975968226036461,-0.2808560246009658
9918,-1.8215803899795593,0.9129975939405575,4.048012279074731,-1.5338280140917193
9919,0.15336567146498642,2.08455505901893,5.232723898868509,-1.8231469078687395
9920,0.423998483698963,1.0402123644276176,4.324947456736498,-0.346006895214735
9921,0.23441177253043818,0.9195668960466697,2.4777012315106828,1.5564152249211969
9922,1.0818204978507344,2.155493685780826,0.5878255700549704,3.0113654639136826
9923,1.9518219757191113,2.867022878512241,0.42359795937753497,4.217205711503825
9924,0.946370945574055,1.8564945259921626,0.6176514713584061,4.542562516589195
9925,0.21592663834096273,-0.1848126300775241,0.6084192158702059,3.791467794523589
9926,2.398665799251714,-0.7283752383570818,2.1321385089947564,3.9135289195087015
9927,3.4009313067060623,-0.8939699354870307,3.1745239059831842,4.262682181763206
9928,1.1868978165904065,-2.6853656304522286,1.6925628584692347,2.2851629312229775
9929,-1.279986170534103,-3.828319102680281,0.08699588779122218,-1.3486740772485206
9930,-3.447958060677496,-3.1906555575901594,0.3084383416323316,-4.467427765034663
9931,-5.43089816735783,-2.7656034076138662,1.520651513681619,-6.8285262709246695
9932,-4.999038867160619,-2.914799156139299,4.2585089111245225,-7.291462250598971
9933,-3.332513305770562,-2.8263451621649507,7.393059802189168,-4.318230425497639
9934,-4.192247697140948,-3.241540509646725,8.008044196338727,-1.1478680342361405
9935,-3.9792153735316447,-2.0010273080749545,7.3429227531162296,1.772694153912596
9936,-1.9185383398122406,0.6429803155269842,5.16586940400949,2.6369024497083444
9937,-2.663196523946414,0.7265084975014514,1.7458455895978422,-0.0702583527989481
9938,-3.5964968044575993,0.32013769955138643,-0.08844643570748045,-0.3583276463454986
9939,-3.1260523941314102,1.0132436488113512,-0.2680286456741721,1.9242567367247756
9940,-2.510092401247658,1.2510029947502648,-0.1805617457903908,2.6363836352387966
9941,-1.560913158505879,0.5992108388725622,-1.3677576372558897,0.6025805062520201
9942,-0.6730972404211899,-0.5395455726660026,-3.0158643185358636,-2.3480124595649126
9943,0.5239477761609279,-0.976929641435974,-4.643830122117368,-2.7793157414299254
9944,1.7825451702718815,0.9178600802821089,-4.85495215066901,-0.8118840171120191
9945,2.160322099108166,3.895823071807987,-3.08898551078345,-0.5596977806410874
9946,1.320567987424318,4.404283383832578,-2.4533499775167185,-2.33550408729653
9947,1.1251942730822204,3.2321059467514637,-1.9201018211279395,-3.3834795998676204
9948,2.0330528927645197,3.3651507579950115,-0.0641067805315215,-3.8237444550056057
9949,1.5554890908118042,4.010171656476039,0.7959386836417671,-2.47347686374243
9950,0.3567198324442052,2.713886185649976,0.2690588482033212,0.867513534640203
9951,-0.1403424732280485,-0.519015335672989,-0.6227989593814858,0.9011638522413039
9952,-0.29884052860107563,-3.445570928647252,-1.4832711577827848,-2.3092928732609317
9953,0.5108044105736188,-4.358886617454909,-2.3129646986182832,-2.423189432298051
9954,1.830382274235993,-4.368401613326031,-2.6947906312817853,-0.6245257059530981
9955,1.2553566930345095,-3.6552930127576673,-1.94066681081395,0.09906324531403826
9956,-1.2643923444414995,-2.663417161813484,-2.016579904395977,0.42812860054488977
9957,-3.90356378876285,-4.298378818501629,-2.4253664292402455,1.412883411477263
9958,-5.592658400508418,-7.204079581236022,-1.3186002452614183,3.6884273917798125
9959,-5.605023102995701,-8.163786856575292,-0.7639287399204636,4.497794215056229
9960,-3.569781699178078,-7.968129109155723,-1.6413102779924407,2.126826855496246
9961,-0.01947994007634797,-6.8441086526940325,-2.804490828264257,-1.3218739268814486
9962,3.0642592770343104,-3.10524100289052,-3.958165225361835,-2.206364609751718
9963,4.144721526703147,0.5186848270117896,-5.198654939299001,-1.1974937926428675
9964,3.217100065871385,1.2173159779666336,-6.467528205927418,-1.9271231182998028
9965,1.8775569225098714,1.6293591856482839,-7.897721103729632,-2.814771948643852
9966,1.54473103148834,3.7412473785698936,-7.5861111802520025,-1.3195983474439947
9967,1.1320566356123831,5.704955705010133,-6.140108129981683,1.145550821902036
9968,0.33315639100760835,6.170989666423603,-6.131250316701467,2.846186705089736
9969,-0.7835028387032565,5.540202241594396,-6.094587853981711,2.729224186142602
9970,-2.5799074715906585,3.3845723977666515,-5.598202408581246,1.2563890831610152
9971,-3.6897663407378656,0.6666324384136748,-5.065082634321604,1.548977294428252
9972,-3.4059911733145967,-1.1606194770499354,-3.919377360019231,3.603093882370565
9973,-1.743427077962166,-1.0745097710594715,-2.2187402927740703,5.9264052146752615
9974,-0.47758918467886335,-0.05340906336058873,-1.5037545464027544,6.470707404087504
9975,-0.3886120003560097,0.24009443522468177,-2.1730118322869503,4.699736621095703
9976,1.042209962901569,1.053213452344244,-2.6297233955315655,4.069458169247896
9977,2.8339433306639186,2.5144605300600658,-1.6885861818106402,3.742540871471186
9978,3.5652434451085435,4.708730283535129,-0.6167525105987418,2.38160112806012
9979,4.783390505381045,7.093787949884239,-2.0832870414771607,1.5234398282234787
9980,5.775014484496472,7.831773882332336,-4.194888459862282,2.1149706437491322
9981,5.617680029428625,7.389233896640182,-3.74869539486493,3.124153790589086
9982,4.869614317564039,6.210035308877184,-2.643912749908464,2.005596283684902
9983,3.322637203477498,3.778815668363644,-3.4455267453260774,-0.6676631064477458
9984,2.827674232968419,2.7831965021443383,-3.9531692510862553,-1.5101682686961877
9985,3.9328237042951057,4.118202893640723,-3.5695830069248613,-0.7829761894391727
9986,4.909268575912152,5.987506349541447,-2.638160075496774,0.0014686299806389927
9987,5.710110361767972,7.093638020944641,-2.445168767517722,0.6543784015435077
9988,6.18721506560725,6.155891645970049,-5.531192701051819,0.471469707486846
9989,6.432833980762698,6.270336324328579,-9.477722459780898,0.6407710161633724
9990,6.05447718601752,6.602322457960109,-12.774391819907754,0.09627477742882862
9991,4.267733021274614,4.119663432947355,-13.817909984195918,-0.4751584968680077
9992,1.812337133692747,1.1456322543697226,-11.630933972641898,1.2630205983810754
9993,-0.7910674142273919,-1.8925689306211773,-8.65402028207641,2.1550880461782773
9994,-3.3402754923130766,-4.749065502048643,-5.316568014159902,1.780126269025556
9995,-4.4834652884010096,-5.736220061211901,-1.972616841582937,1.890253784001595
9996,-3.8895005804481038,-5.40384139655101,-0.11672762238133469,1.0451544641560502
9997,-3.2208646554915554,-4.143059873593609,-0.48511017798587497,-0.3177721038200034
9998,-2.7892651788203926,-2.408428843533983,-2.7886119517745014,-2.141413296035798
9999,-0.9896641093492867,-1.32022457512904,-5.1628409581194035,-4.624756943698011
10000,2.066691356880457,0.08325337575124059,-5.980534487716516,-5.159044528832147
10001,3.9874524560559776,1.6455468609622554,-6.819627063154514,-3.668280826837098
10002,3.3838508386974917,1.8860674725898023,-8.563277110127256,-2.4482644002728353
10003,3.1809921712347196,2.3419862828983993,-8.767814627830196,-1.746640455938335
10004,5.345934934567529,4.339317018594118,-7.828855206142835,-0.09334888999791525
10005,6.218162337810015,4.599756059362598,-8.71710710136751,0.7896369645177991
10006,5.7560123214933725,3.0107030631839278,-10.067031343861327,0.17608478814087453
10007,5.222531236734002,2.353729718061381,-9.735298467612594,0.6560638665882881
10008,3.252937098553144,1.0836977940936694,-8.609549853675484,1.2969248429993063
10009,1.7436355005102953,-0.7730768312244787,-7.159980561548025,0.3141887641279515
10010,1.2252775104881122,-1.736905677761061,-6.792582249541423,-0.255142567638625
10011,0.11940310258343001,-2.4440927396613388,-8.16641091687881,0.9660600306437837
10012,-2.4016057955609447,-2.954738883195945,-9.32829122431778,2.0362046965580554
10013,-3.571331485272613,-1.7217701200331224,-8.80652816844451,2.737843949281295
10014,-1.5468638135187325,0.6370393584984269,-7.34154934890662,2.429789089449178
10015,0.5381052323256117,1.5271745813422262,-6.622229831866029,0.7524925874296662
10016,0.21556811760417882,0.0871890409879151,-7.717987330358281,-0.641258861669722
10017,-1.8311029632529126,-2.983778740773861,-9.531531566676371,-1.8073489847651527
10018,-1.718721277461011,-5.426949069351343,-9.267253531832637,-1.9463715857993398
10019,-0.12800088159971976,-6.418542427870672,-7.7306081661299295,-0.8253394706284605
10020,-0.5335830682847499,-6.503080807733894,-6.9741067756292,-0.6120743903951928
10021,-1.077912545518494,-5.982338578087801,-7.028504810593947,-2.8763464571027715
10022,-0.605615662242854,-6.859231290042303,-8.157123889895809,-5.520607736701279
10023,-1.2868935449761707,-8.895708831644448,-9.071961023237225,-6.035229044183044
10024,-1.991913450684573,-8.38927468635476,-8.48188887094843,-5.24724648861356
10025,-1.2809773558073057,-6.70083492816974,-7.737214241505494,-4.572674353245245
10026,-1.121411548903743,-7.726156067167063,-6.919601097169748,-4.5811453947106235
10027,-1.6504634685257549,-8.361255189664305,-5.870788195801653,-4.577387371304447
10028,-2.09110319846393,-6.2518520426174815,-6.34063016200168,-5.162543635848327
10029,-1.7557067754235534,-3.8335785044782393,-7.9088006278707494,-6.29048543931995
10030,-0.2835509513736098,-2.7094271388032616,-8.978163443710145,-6.28102659687331
10031,0.7343547443789794,-2.512132672011317,-9.611378752038824,-5.607866835423774
10032,1.8171347244902052,-1.0457010944717529,-9.294927308699766,-3.7765646938535578
10033,3.23877747490106,2.3653371247902544,-8.169124981761207,-0.9434992334443322
10034,3.245053789310186,5.67003178235495,-7.714188736439427,0.9250427016506603
10035,1.9768266402697583,5.573758000858242,-7.915412650035226,0.7355845045436865
10036,-0.03422901502957315,2.293384304265732,-6.549231015504839,-0.5461568842862938
10037,-1.937843360481439,-0.008879133095721942,-2.9640048942891504,-0.5335989637694069
10038,-2.6552055444447733,-0.7615590920206878,0.5760960175050674,-0.04690110037276987
10039,-2.0293817428396492,-0.9558232899980089,2.693992651514336,0.3005355090271382
10040,-1.110118594122847,-0.30579699750777445,2.240355964117382,1.0658013072310422
10041,-1.2306313308659236,0.299915653594813,2.2042408503224413,0.19909537961386242
10042,-2.175419344139659,0.44935136194885084,5.800614912642786,-3.046100622956902
10043,-2.4599958710262473,0.14446991800958658,9.7647641505169,-5.717726215881194
10044,-1.7526659089357217,-1.1141395941294874,11.822772586691368,-6.23223186135957
10045,-1.6659388255702616,-2.7113315806710565,12.400977285298397,-5.387389733336325
10046,-0.6447840349481977,-2.448918318410437,11.996632809642598,-3.617419668449758
10047,1.9844935151442071,-1.0141681700850964,10.237032974507503,-1.617759263312067
10048,2.891411169005635,-1.4222278527649836,8.35330943591122,0.056937120375079975
10049,1.0227210807262446,-2.242175525245677,7.881271702090355,1.3147391369714938
10050,-2.2591335138187714,-2.359214972171505,8.499655545825874,1.4704032620464706
10051,-4.600214286025759,-3.4208892255232333,10.446592995582511,-0.7293063607894167
10052,-4.484975960714899,-4.782977863823105,13.492976356601659,-3.7386990104076414
10053,-3.2709107972691682,-5.689785397575083,16.231571004703454,-5.432412424545565
10054,-1.9298141270156077,-5.531015997505272,17.49283608291522,-6.370090437547714
10055,-1.0236139668348916,-4.49993186894829,17.389064636127106,-7.72567744225946
10056,-1.1391479446283297,-3.9063000660204867,16.44056915766845,-8.567399140859347
10057,-0.8287673300902492,-3.7414301774667855,15.66702302648164,-6.958562052382624
10058,-1.2882430296381373,-3.2250995033695644,14.91616378720024,-4.440150211989815
10059,-2.776987211853026,-1.2549347193757265,13.694181455382445,-1.5797017593328082
10060,-1.6575416790995343,1.502324688326661,13.908483872113104,2.4782341547300573
10061,0.7513855503250987,2.241613474834028,15.542978895651313,4.44084712121698
10062,1.7801873293179304,1.634355989506088,16.51982249639499,4.863354164693275
10063,3.004346300346474,2.998380653043582,16.203309069311544,6.380135049800179
10064,5.639558497129967,5.129336276270314,15.342407200265132,6.188449428586725
10065,7.68594897729185,4.901417751725075,14.200022499230853,5.300419480319504
10066,7.043121194386878,3.149548697823984,12.801597589006493,5.996242136086392
10067,4.66712983531023,2.0467534643918683,11.615036805306769,5.4606076761321765
10068,2.5444185907696912,1.1796600426411454,9.558868544948957,3.9217636459477427
10069,0.6826435712400387,-0.36700560640628094,6.834514911723547,3.4641881435897752
10070,-1.1985124216910572,-1.39128385486627,4.410185106887781,3.399274549216253
10071,-2.3188231888544895,-1.0738473691918073,2.812722864563239,3.5396275854545722
10072,-2.8914940555217847,-2.1749730664598506,2.7122723853840087,3.5818786315387823
10073,-3.832993773552194,-6.156175183861535,3.0533904263050493,2.252026515925817
10074,-4.541279047182637,-9.550658453836846,3.7201814426587263,0.6966330323516114
10075,-2.976407244612347,-9.239615340826136,4.3301463652987255,0.30293512905108044
10076,-1.5428561845869053,-6.686526929202109,3.2081383357461974,-0.3267318089804469
10077,-1.3647246226259038,-3.5716686305933716,1.6179691485413445,-0.41989291905162873
10078,0.3487621170003017,0.38943860083345505,0.5258958567666545,0.9268753394748341
10079,1.6919608608002283,3.3873921206856985,-0.2006818437857506,1.6517371779043128
10080,2.186403613808102,4.868627443835856,0.4444605500747103,1.5377320285674612
10081,3.3170111690703656,6.084773070887846,1.4577866316668255,2.4227909915155945
10082,3.479447447096907,6.599327877627198,2.18846872181488,3.3910602340331146
10083,3.5790879256815824,6.562101762491183,3.2042636701422538,2.9796787564592933
10084,3.563426605161158,5.6099905790182625,3.1208178029551963,2.7098344820383273
10085,1.1164202832829593,3.8204653086913436,1.2409509591648658,3.250210036119016
10086,-1.9336061732476844,2.591717491548991,-1.048171628893337,4.8523016466485265
10087,-3.9261244977312013,1.7914596409101906,-2.2666344253345114,6.855271476958523
10088,-4.3790503555681655,1.4350491139168469,-1.2315521689607636,6.404774151372259
10089,-2.71718357416372,1.5120326451435346,2.0622314669766504,2.981710026794011
10090,-1.2472314154189545,-0.42738623246138097,5.380938383899064,-1.443871958014269
10091,-0.5608417529711145,-4.541660419040655,8.153294901615805,-4.511179697086277
10092,0.7712735382363142,-6.454216912512144,12.060226129565763,-5.580117078904313
10093,1.143166324201906,-6.6398750528383434,13.265352404489953,-6.172284558989871
10094,-0.19749286935033245,-8.135493070337747,9.789094585111922,-6.150031709665604
10095,-1.219107032422926,-9.645572787765401,6.39547622375241,-4.729095706152664
10096,-1.1344519171320102,-8.663910355709021,4.162687539010498,-1.9617575637776232
10097,-0.8011828121181047,-4.341215408072057,1.6672903531961607,1.379256992246941
10098,-0.6667463977774599,1.614232286271865,-0.4971527778140228,4.0131105441929495
10099,-1.261517036621631,6.179343294705626,-0.817251044204299,6.173034479952707
10100,-1.9626050714497663,7.149815500780898,0.7730349703565931,8.22881070476292
10101,-2.4173355559807312,5.357807813889212,3.5445544709896097,9.50550347503909
10102,-2.281905479564846,3.1964677770021304,6.894398798289689,8.93304023779555
10103,-1.383690938448724,0.7798767657268821,8.682205385742076,5.490766120283423
10104,-1.2332239121854993,-2.4120095766582668,7.959081214679641,0.8677984708936443
10105,-0.18311035972839773,-4.393025393903598,6.709262362382859,-2.4168892859401896
10106,2.007246635392547,-5.087318769235658,7.465247776650064,-4.968269436817151
10107,2.5352939526857092,-6.205146691674584,10.285984529619126,-7.433103449004883
10108,1.2809989569351565,-5.663177769440313,13.39183918676494,-8.359395373783569
10109,0.760579097579062,-1.9206414611617313,15.407076800687985,-5.699050361986155
10110,2.600276774661898,3.20840942968125,14.707931258217586,-1.9195010247617708
10111,5.134688584032882,7.673479154863808,11.958424839024438,-0.9115029241727152
10112,5.499815771020451,9.50121180994108,8.907964601515541,-1.0895149918450988
10113,3.4925300587980264,8.416917840787947,6.891734179382548,-0.7154184547797794
10114,0.4674100946899781,6.135839476256968,6.554081110029348,0.05010303658719095
10115,-3.097605459542502,4.290692395989757,6.353366559276802,1.4815955556316847
10116,-5.167612613652565,3.829084193534656,6.2184812111419685,3.778768779109132
10117,-5.642594079935246,2.9950601803235353,7.508847178287399,5.4662393062792125
10118,-5.636189718667041,0.3543434298646222,10.079205804523854,4.986168278254134
10119,-4.735930044322819,-1.580173385753168,12.350057252996205,3.2592431810354854
10120,-3.1994602308242994,-1.9986806501413308,13.026638495217115,1.764475447654111
10121,-1.3712905214579563,-2.033717489452155,13.120131522521817,-0.026800058520218467
10122,-1.0729691952259326,-3.2388348745872815,13.117598158246494,-3.3299251748255307
10123,-1.3489336270964147,-5.131562792883575,12.90803639873043,-5.238368389540214
10124,-1.267244899518994,-6.166665634928505,14.054647227245981,-5.588910607210637
10125,-2.28664367710626,-8.11131120624082,15.902612484837368,-8.384542114399894
10126,-3.3018599862804257,-10.009295863549749,16.366970543784333,-9.718918633680701
10127,-4.2818478669717805,-9.698025028881894,14.748794855001735,-6.597358530961662
10128,-4.990045838282948,-8.44413185693158,12.415386461298965,-3.98078374444552
10129,-4.706877764147429,-7.743852501739247,10.869490863737974,-3.4956214535267813
10130,-3.780727593688931,-6.604519263089544,10.711105225312286,-2.2058497128005436
10131,-2.864216749598116,-4.627135579519625,12.036789456246689,-0.040702986395777685
10132,-2.568719414922006,-3.3690597024757856,12.504171441216728,1.1793533471246778
10133,-1.7920221546261519,-2.247454817441283,11.13998789537103,2.4235296513155182
10134,-0.5324564837445527,-0.5191267802892587,9.626252192552988,3.534646319692398
10135,0.6674892035043667,0.8117949103077543,9.066932514311679,2.4069230213120507
10136,1.684910729638709,1.152481398349757,8.935452117302075,0.42600846366368034
10137,2.5152628871687335,1.86421535568309,8.755234674732824,0.364494898424758
10138,3.6785540624330486,4.584652682353326,9.130761175680322,1.5886470089608995
10139,2.4037591369432647,5.682037764159903,9.483509952375762,0.23704515014655636
10140,-2.905348567903754,1.5976638538281844,10.012936176141972,-4.036708406759326
10141,-7.952707922678838,-4.667318784557229,10.527589839226895,-6.65949435482596
10142,-9.558965483873816,-8.891972081899723,9.430312151436087,-5.557133835136574
10143,-9.328477012309072,-10.261989795169262,7.643012613105642,-2.704636476038689
10144,-10.016722405794864,-10.311140676423225,6.631598100311091,-0.9664065765430087
10145,-11.229674887137586,-9.48042961948135,6.709852556569599,-1.0363019330375252
10146,-10.027332221540489,-6.715886059329505,6.775043673022382,-1.3496246799901213
10147,-5.733776129364129,-1.8713694005676986,5.204550514919978,-0.23208342971206614
10148,-0.6081006960754873,3.2327091558729184,2.5381575944630552,1.7913096544884528
10149,3.5509642287852126,7.20050561454922,-0.3615048503443953,3.5394960111858986
10150,6.217716545833024,9.713368227063574,-3.057905990394908,4.034223902125481
10151,7.504829359562266,10.17893349365249,-4.978722850453482,1.9834622435103906
10152,8.892158637161437,10.297109237676535,-5.536524868102961,-0.6066681508880345
10153,9.8457650189445,11.58928196318707,-3.850299556934955,-1.6381404977426222
10154,7.331317158388388,10.33981448924084,-1.619084651521763,-1.7624605533471052
10155,2.779225712673143,6.714594137680631,-1.0716013569933447,-1.393724696940777
10156,-0.7198438091638472,3.6837568355803407,-2.5571363477283198,-1.5818923828603013
10157,-2.7774118949091693,1.3081179634547133,-4.035616446776817,-1.7748148099990553
10158,-3.2038756551436953,1.4918259487590737,-3.9383350438626774,-0.1317571951902483
10159,-1.909140945941581,3.606402764386022,-3.238175413751296,2.480453079605419
10160,0.5811468978902243,4.565554680550542,-2.3722787110368673,4.471350857734925
10161,1.9108977367883873,3.8165753063866217,-2.963812785822013,3.5063078905115383
10162,2.744309254849705,3.3413243206150756,-4.708613954154384,0.09268463949019701
10163,4.573398707015533,3.342923969711522,-6.709329960223851,-1.8291567920963023
10164,6.41838615722114,4.935387614187457,-8.91560182903907,-0.686171036593334
10165,8.244993796510851,8.479689596933937,-9.59122140131904,1.4657281002361167
10166,8.726006109268035,9.798251001518357,-8.696707883155955,1.3977828743002403
10167,6.945007985823277,9.132074034064425,-7.020797581197021,0.08341643713931104
10168,2.6195372461001627,7.762104724119744,-5.562940439394218,0.030986302374768942
10169,-2.256272429050151,5.129304121670369,-4.781217627144313,1.6077114389310816
10170,-5.424031453283077,1.7453591245865419,-4.070831264801048,2.8494975067417596
10171,-6.928851130228533,-0.7821862835425429,-2.7810625502525377,2.9136058977048678
10172,-6.111180024172079,-0.8316287016343206,-1.3640568158425246,3.286583892340815
10173,-3.2708548113126055,0.6460371091266848,-1.9280740494781994,3.210224770620658
10174,-0.08539892935942606,1.7777813928996833,-3.7773984394627718,2.2766716513120744
10175,1.8752425673209943,1.8377615866139594,-3.381307352082111,1.4844003848532783
10176,3.6918680757544244,2.381116446029347,-1.40719699872016,1.8369037597970979
10177,5.844233827935442,4.447009821613648,-2.0006436638639857,3.7831074189307787
10178,6.949898724063117,7.3227965247940725,-3.7445124287661153,5.771896297188674
10179,6.982861249836788,9.615754862836873,-4.075424744845075,5.60809159882356
10180,6.030446027202586,9.908560870871996,-4.4577118432297915,5.1267159288492605
10181,5.305365868484099,9.176563189960785,-4.753917741177374,6.449491440011177
10182,5.500348789087073,8.301756132187565,-4.375628367383635,7.365843607692934
10183,3.892296714753634,4.873824162222668,-3.870305137601584,5.565231797859551
10184,0.06392486292572938,-0.1941674891622983,-3.493990778564611,2.1882322160600234
10185,-2.059805953997886,-3.029712184827871,-2.1243565205467214,-0.11322389471346211
10186,-1.7695070143253266,-3.910710937442395,-0.6129282612717396,-1.6033523593032262
10187,-0.45847208799136074,-2.962008008373696,-2.1730190847060915,-1.891414068869524
10188,0.771250885219716,-0.9302555834611645,-5.435722569009802,-1.9938903990533212
10189,2.306289091385805,-0.03783159448084486,-6.104859883577145,-3.1239811417501344
10190,5.558996627331366,1.1369068141794825,-3.8641894143996676,-2.6645165662173116
10191,5.729296524547032,2.474243749900853,-3.3214198747592407,-0.8648575122747589
10192,2.1589352198701572,2.814068965240222,-5.1577752616955745,0.6893161863545879
10193,0.7248724779654989,3.8624148957143736,-5.826216824352452,2.6236464976850606
10194,0.33687262865112977,4.457744647363219,-4.978818547518348,4.539783145576895
10195,-0.3532676693022823,3.5850298091279353,-3.5814633669731952,4.673425042063575
10196,0.0551118992937642,3.514754969080102,-3.144135676360593,3.645949688688014
10197,0.006694250707051097,3.516516626180747,-4.300500730418392,3.6117468679073768
10198,-1.4003933271386213,1.271528121152873,-5.900272794985566,3.416431475243595
10199,-3.2510973051732175,-2.289386800069497,-6.6506220158397396,0.9540799811251064
10200,-4.047764491080395,-5.154462298488617,-6.0892388187703475,-2.400964709231164
10201,-3.771600912465775,-5.7125892822282225,-4.134826681766933,-5.059141091972274
10202,-2.9943774979395164,-4.217167343125191,-1.006835446847257,-5.231029766897454
10203,-1.0197835749879067,-2.6460729674822856,0.7380609243822704,-3.2493496008913003
10204,1.5386212466009899,-1.0029794725837327,-0.8299640563074804,-2.3626288192598635
10205,3.324804108746664,-0.039387283309783847,-4.135683770881965,-2.29157456775296
10206,3.8657988036617605,-0.4422216405507763,-6.096609312120337,-2.3852613730524306
10207,3.6356250730621524,-0.13611815408811714,-5.647284899302876,-2.821142256965147
10208,3.390811035097813,0.5423690265493333,-3.0166205083433253,-2.0180483550901442
10209,2.46240430989237,0.3084201411882098,-0.35220906589831136,1.0592181475779041
10210,0.7081556791283641,0.491277740096556,-0.36306794237142903,4.840623682258083
10211,-0.9344237640546182,0.9364098111989397,-1.82986088861925,7.090618812396821
10212,-2.9478014103895798,0.4868067345614169,-1.7351021501787327,7.484878212982634
10213,-5.23839412090923,0.21800388653038308,0.35706861517629185,6.457372031154789
10214,-6.743154112595117,-0.5284792121552028,0.8697293381861383,5.1681629590413145
10215,-6.850367615604407,-3.219459350934142,0.2957192184876195,5.083953510235137
10216,-6.824270006855555,-6.386312935028431,1.110896753999205,3.959749209094877
10217,-6.727551891962106,-8.446206481162987,1.1791828199964587,0.8453315370954562
10218,-3.931097736585558,-7.504640650964693,-0.4089268069144999,0.3996994718369237
10219,0.7335365762397693,-3.6581296647910224,-2.2641063025495076,2.6194381660465083
10220,3.4861445024230076,-1.491237935184027,-2.2180727484897744,3.0046905379981412
10221,3.905963502291229,-1.6680503710023165,0.12327997951325242,1.3119221362099505
10222,4.951050681870928,0.021052970141500316,3.2073448511855327,0.11878415697171997
10223,5.673247713590825,2.943349901646294,4.914297240679749,0.5159212570576756
10224,4.981038917224249,5.027956108269423,5.676126169073909,1.054264422069827
10225,2.925035002785931,5.11758482876405,7.8273153820830625,0.28194010319836826
10226,-2.1086326760787717,2.4023387071024267,9.82349699484985,-1.3477743204880945
10227,-6.895853868532922,-0.2655924589038454,11.875103695761778,-3.0700959299611115
10228,-7.062506400857046,-0.9789521962946034,14.71577745498834,-3.692915308445765
10229,-5.97742591992486,-2.5559322481889883,16.08924379063648,-4.489000300805546
10230,-7.768394519049756,-7.083612843241776,17.383630580091857,-6.390361290126781
10231,-8.879782741575273,-10.427503678505236,19.393194529670488,-5.713006750983983
10232,-7.628920823481065,-11.635927150977485,18.287764069916634,-3.5519807229648115
10233,-6.862748999580876,-12.580237953809263,15.52729378223815,-2.7792002057728356
10234,-7.460890281146125,-12.135981997643686,14.33710596385389,-1.4887513669250936
10235,-6.992673021005835,-10.124223071659916,13.772211954225536,1.8109916284914251
10236,-4.57089045216317,-7.785274140208461,12.570462939291199,4.579320786678138
10237,-3.2833698315528346,-7.06082564581919,9.415907614723046,2.2764261450659067
10238,-3.373822693068909,-6.7515966096304165,8.089624668905312,-2.291665173579554
10239,-3.2436141699049044,-4.7613646192972565,11.714268583540454,-3.1773467976254075
10240,-2.835814819068812,-3.25746061053859,15.757289371481958,-1.9191882603490864
10241,-1.8469405504336645,-3.652026584459363,15.776524745208514,-1.3534958151954433
10242,-0.555083239558336,-2.5445638773005137,14.603377783098793,-0.948735095359655
10243,-0.15565369903217105,0.21000510598423308,16.08224455560897,-0.9068240842000156
10244,-1.170795461139848,0.5066115094809063,18.345392289639637,-3.401923715847112
10245,-2.8898512097137354,-1.1084901018356503,19.73815549134585,-6.487310529168932
10246,-2.9824052145068056,-2.088384619162466,19.54914047499954,-5.864887261703111
10247,-0.9474612311050672,-2.3199503970126942,17.946362637891138,-5.056130033460276
10248,1.6226413518029512,-1.1065037116393757,17.42264540955284,-6.855957942562584
10249,4.880456194433971,1.9680748471024672,17.843728785776015,-7.930806590557386
10250,7.293841907740054,4.1773440502885295,17.1411742015194,-8.537050681854335
10251,7.217220318431349,4.177017888047351,15.194737376677589,-10.027486424710084
10252,6.867795714929647,4.9924017149931785,13.99680552791984,-8.34682903597742
10253,4.807950838505067,4.9635854151174685,13.0627421763239,-3.6642071030722296
10254,2.3298625069414745,2.1500972252015695,9.353158041221768,-0.10285645811888769
10255,3.736002429259879,2.236485243444049,5.841623222435835,3.1936045764580414
10256,3.1381182419420734,3.969407005413649,6.325607680496965,5.3997319831779915
10257,0.1153533525806705,3.716038061914862,8.887724502081987,5.850040869928058
10258,-0.6597935407219295,3.528032801919205,9.016985669121352,4.7883920897890375
10259,-1.8101791679355073,2.823368879077834,5.8133220033381985,2.358281644067887
10260,-3.8539905116795294,0.6803008993379369,1.6745864467202172,0.8440217096368422
10261,-5.0605047519472075,-1.5933105695092888,-3.5252314559011277,0.20548534619054407
10262,-5.667242540185553,-3.6296439033910413,-7.873198627751209,-0.6028067446881774
10263,-6.102285009487714,-7.006480906175942,-9.22695046494747,-0.42527559467856085
10264,-5.56558905551934,-9.940704865197725,-9.541384686208099,1.8106637187444907
10265,-5.208487692005481,-10.596297181899166,-10.252034026460695,3.159043234706435
10266,-6.237297934323371,-9.805352877945838,-10.510376909604972,1.4587293296165682
10267,-6.263870433301946,-9.601322913307888,-9.280675775849742,-1.5757455371374012
10268,-5.705957017542331,-11.793832651153457,-8.737701097396112,-4.346284094100534
10269,-6.121556885955514,-12.626110969695166,-10.037970105793471,-4.822103428057585
10270,-5.9973351524852445,-10.058517154925728,-10.375262247402892,-1.4748745584253249
10271,-4.30421028264359,-6.213835091770493,-10.628889887088175,2.34738261713976
10272,-1.3384791651567578,-1.5283696443008778,-12.301201143242936,3.425264909166417
10273,1.9084948400971964,3.2943055858077805,-13.852918030857852,3.088729173699401
10274,3.5162395486629787,5.539588693056588,-15.740449392510055,1.9904144225512654
10275,2.908680935440676,4.825036738758156,-18.114073940938738,0.5957749619925645
10276,0.7484864996642475,3.58881431191125,-19.945952476364116,-0.7175329659774551
10277,-2.5305053629113203,2.977088091884145,-21.63896297886833,-2.21550288838151
10278,-3.8845582196508768,2.88417273102553,-21.771691639029328,-2.415077377254717
10279,-2.6572538124536913,2.824469187491291,-19.77644823931065,-0.9826795386348517
10280,-1.3348614928625915,2.902627536225226,-18.895536227317287,0.8710686692245195
10281,0.6039123793523955,3.57141458413267,-18.917490630529905,3.8122521946862484
10282,2.0452699926553275,3.6756504549541256,-18.47296151402274,5.89336493957691
10283,1.4073865517330006,2.614158042344265,-19.168145660328122,4.549427224277063
10284,0.39978446471531837,2.2321981326407894,-20.684321126467207,3.6970891233446115
10285,-0.9078357006522465,3.471212446364929,-20.991403896471372,3.8291726388498053
10286,-2.4862563065955854,4.242971656819272,-19.9980812613989,2.434070248615254
10287,-3.131501702594391,2.7296574563774274,-19.41498619746382,0.7955556278891562
10288,-2.7466246961175003,0.8875722281542526,-18.61485073729058,0.5833785699362997
10289,-0.6678766392837789,1.7648408864822769,-17.263725162210235,1.8368516005824411
10290,1.7668933938401994,4.1048761357722165,-18.2945212424571,0.999203168803177
10291,3.152285608683277,5.282637125391423,-20.408706437765918,-1.5852582608105463
10292,5.2863344223216355,6.678549964334637,-20.797348108328876,-2.0733037392527742
10293,7.895516817202586,8.821550057034539,-20.3844934699398,-1.473343204323447
10294,8.772597764779979,10.273314255947668,-20.063176035832612,-1.6233285212728137
10295,7.84026901259209,10.997168229465064,-20.45316129339462,-2.119101781663315
10296,7.894630907776908,10.805320248699873,-21.676041977384454,-0.5862982717382725
10297,8.296415267423455,9.428522244166544,-23.46018437995387,2.2359791499720405
10298,6.765831847323654,7.64917394941134,-24.71403207754916,3.5485880942761066
10299,4.515776777256954,6.2436783711429005,-24.30151365595442,4.099946038791476
10300,1.5192591571334988,5.109915041607878,-23.31865316425917,4.913061580682233
10301,-0.744667064406899,3.768139797894785,-23.217652555474015,5.427126722914562
10302,0.041236043549535445,2.4408444072106104,-22.77124161559043,3.941419800250696
10303,1.3132219660819597,0.5929841508800004,-20.790673883402654,1.2203395184756651
10304,1.2215977053477296,-1.9798132616767723,-17.954459956193976,0.2868851137997064
10305,1.16706432411824,-4.009170911796734,-15.190808986459874,1.2362314884963312
10306,0.4606993027914219,-5.255491707403094,-14.789102028032591,2.2791960836893743
10307,-1.3082919513554117,-5.952369206807832,-16.720137396084304,3.470508273389958
10308,-1.5931636479844293,-5.454637161659855,-19.31554953147813,4.790685529989302
10309,1.288950921817648,-3.743131486183621,-21.67664896908999,4.958837191072839
10310,4.974700751413359,-1.966397697092881,-21.99729983761652,4.514454548781425
10311,7.083255822906308,1.3934075700552968,-20.24029473830337,3.640033939550806
10312,8.072414252650773,5.64851197395571,-18.083901269384775,1.9978272435114355
10313,8.076710418767664,7.684439435065531,-17.195643031917367,1.8520761173000624
10314,6.935292466273262,8.329619430177587,-17.87110469341249,3.5174122729799726
10315,4.909172497213087,7.623411887200071,-19.733749784982127,2.741312417192996
10316,2.244761710309169,5.797497354836707,-20.722725134859918,-1.3420907042904497
10317,0.8174320058221758,5.630360990888803,-18.72321295255188,-3.3753362321420246
10318,1.9956017370342527,6.528914360248606,-17.684911910512934,-0.6249883793672639
10319,3.746295623217215,5.9689809300056424,-20.951636363537514,4.4198756006253594
10320,5.222928814495459,4.952005439677741,-25.49806399279615,6.9229426867427195
10321,6.237871003111209,4.336305341525497,-27.43108581760165,6.197421607831288
10322,6.8376508054050715,3.5396543877817583,-26.86522576402542,5.361487095690679
10323,7.901951366665486,3.860144504454668,-23.886731076190834,4.603926302581748
10324,6.4464510759556575,3.8859346357175073,-19.215933556447023,4.420409992869903
10325,2.9624185018134335,2.977645088221037,-16.651151164838417,5.2988815643016425
10326,2.062885090499288,3.7438751753011656,-16.022580850832775,6.288061650834564
10327,2.7870769456034834,4.627330597604828,-15.856350891402764,6.770132269444055
10328,3.798416209789728,3.7472393717274217,-15.069888780470196,5.880879719481028
10329,4.842913780724958,1.6406255858574994,-13.042012396052328,3.3076923410249215
10330,4.871985430950815,1.4790383560992362,-10.535620298083321,0.8770149210050089
10331,4.296575883880469,4.837373332314473,-7.459251613476745,0.19558482529168492
10332,3.1617382259733513,7.184483611647135,-5.507121819076482,-0.06710334855729605
10333,1.7095846721089631,6.427352477824314,-5.044506377933577,-0.8727035615306358
10334,1.3806102366247943,5.273724412318289,-4.712138412321041,-0.8581597439691364
10335,2.1352843248398874,4.124793345159416,-5.1833462338314025,-1.2865800876507187
10336,2.5489340800801132,2.070417492141955,-7.093751779778108,-2.54808983419721
10337,3.4966664697866774,0.5937227345310903,-9.720228192638778,-1.7937689422782574
10338,4.8261735152570795,0.7045836694814964,-10.902736509277174,1.038955852170071
10339,3.9859833897388475,0.12053101940237362,-10.675673629573692,2.431055592680268
10340,1.4501973405350197,-3.026844947765538,-11.144149675657882,0.2359694359602685
10341,-0.148618684848351,-5.897982794948267,-12.2275136107815,-1.4108956038640421
10342,-0.5753867529135918,-6.524606309357279,-13.841709057488643,-0.04714813943469126
10343,-0.17193198987603814,-5.213978511742632,-14.727738867803227,1.5675143297727618
10344,0.9685522272569722,-2.679304223249816,-13.918032230179707,2.862708496731754
10345,1.9091061999310552,0.06795705120540224,-12.814665493306322,3.470163146330672
10346,2.060942216181468,1.653574972123959,-12.359880600140244,1.9717696543584522
10347,2.685586206579133,1.1647722200015318,-12.108953348958176,0.022503442405004292
10348,4.766669429316614,2.253675600987352,-11.230238908032744,-1.5958527881150029
10349,6.6784695634805225,6.175143440484361,-10.418292811970613,-1.7460378122246514
10350,6.64338254256744,7.228285259751345,-12.270933204643164,-0.8893090875105094
10351,5.7388260323583244,6.4296795621959895,-17.481126246781677,0.5897131392882549
10352,7.342950129377691,9.909105307601326,-22.40740922633843,6.5647360417343705
10353,7.058052140670326,11.079740128135873,-21.54948060419226,9.209543590855025
10354,2.406496339929063,5.604965309007804,-11.961200859604146,3.1941826103844146
10355,-0.03104108402075053,1.4111092836600725,-1.3003754992716172,-2.1223583764845984
10356,-1.1664081201433627,-0.9872633686834439,4.258275665224574,-3.9879987393881122
10357,-2.1545313052599138,-3.8454105944748767,9.515415342117599,-5.495459964862454
10358,-0.8801427848044295,-4.698653876635684,15.902534889027677,-7.873834979579057
10359,0.030576204893009048,-3.822073989477993,20.513186053269067,-9.481963424068184
10360,-0.1812500741158199,-2.53506689120868,22.67480851727308,-8.547317917512064
10361,-1.190234614934285,-1.7990246870564128,23.292205822634482,-8.098570604318967
10362,-1.5728102261978893,-2.329247425964072,24.02380710987318,-8.8260381231537
10363,-0.3703754420424401,-4.5225301510117895,23.867068756945176,-9.634713253264167
10364,0.6293486690773422,-6.434470976881735,21.902515892317847,-9.760140818004043
10365,1.8923517739151046,-4.358297256516736,20.87153046997186,-7.724665924883083
10366,1.8802846576946872,-0.9737063701609059,20.824943620955114,-6.038438368779326
10367,0.3259680708185287,0.5429887441774919,20.040592594790294,-5.273047528675942
10368,0.013903256141450705,1.266101289061492,17.625625378566337,-4.298142702194734
10369,-0.7840553126134697,1.2000949332764275,14.1489041728248,-3.5702803415160957
10370,-3.3386748058041573,1.5292087922885493,11.218666256102265,-1.542506118415746
10371,-4.517131974034703,3.6067029691782744,9.904879619726572,0.7133766446143688
10372,-2.6425162414627503,5.944824420911339,11.486631598102978,0.7238398103761542
10373,0.21452809615893315,6.648611089964642,13.397535967023035,-0.16408669028390274
10374,1.5994612826931112,5.748069326705304,12.259257155295991,-0.5630706844521981
10375,1.9002002097906363,5.265483285941242,10.032571355487226,-0.5085517732302389
10376,2.386640003237088,5.931046439520961,8.00481534509357,0.5023928694337798
10377,2.7259021698299946,6.989655757617424,5.781036096184093,2.605023702198831
10378,2.7073862475300525,7.59979022994557,3.851738108070674,4.719075203561275
10379,2.7307501751163765,5.801643223798702,2.7844870991114616,4.897114694735454
10380,2.829325683858777,3.0695025536692504,3.271560498165912,3.282238400492358
10381,2.157328021646677,1.2444635533025086,3.116671172128972,2.2188701779384488
10382,1.2173108586566421,-0.4230868654553642,1.5902112439736333,1.8971416817551674
10383,1.362409280222223,-0.043819541775891466,1.4661617593234506,1.5865765321162464
10384,1.8814777188543674,0.7351989949072898,2.920796901390399,2.242781464805609
10385,0.9956291509668607,-1.7478708002224415,3.825930647715339,2.4228593198867947
10386,-0.8733689360063187,-4.499503686312215,4.372595801626808,0.1349905359611319
10387,-1.4486891097814112,-4.65349124571885,5.919628084101457,-0.9378932883522634
10388,-1.2718949397017867,-3.545777975414652,7.158775234190434,0.3893640411917716
10389,-0.5580073703566059,-1.6523093000715947,6.482017860098569,1.2401268338705038
10390,1.5392790624880082,0.38480797554359697,4.580663999765409,1.549685236113938
10391,3.248919802009154,1.0332984830992689,2.210325548108189,1.9842562026090609
10392,3.78988981980868,1.2963272551635832,-0.06309250709327643,2.6358053588769974
10393,2.884919395632434,1.199696382587627,-1.6196759715463136,2.661730862169193
10394,1.2598718955926616,-0.3448271865452716,-3.035608688816513,2.551038963399071
10395,1.2802144992637932,-1.4956888282281244,-3.448028927223084,3.5726013996568926
10396,1.9935220641171232,-0.8158700010754565,-2.0244029936990264,4.234348779332265
10397,1.0616718234671627,-0.059054961571756104,-1.3546158019933159,2.8451443769984595
10398,-0.15819415730842695,-0.5558049619570194,-2.33990033909575,0.5004646525393779
10399,0.7212896099185813,-0.2484132542466789,-2.3921325349194014,-0.8028400296252343
10400,1.7135266156350724,0.566796948496768,-0.9534598913484928,-1.7973966708089237
10401,1.1914666161037648,1.0359198358863502,0.7321254358402105,-2.338815016166226
10402,0.8288584439253301,1.7753111767898182,1.45065214141586,-0.4987560562154697
10403,-0.15908821589883926,0.8480105051670748,0.46910188579789536,1.3655805434897905
10404,-2.475726936524971,-0.5049551984580843,-0.8178453182584251,0.28219237074021175
10405,-3.654667845664937,-0.1751337771414542,-1.048950103807402,0.11410476320958715
10406,-3.427752159104547,0.5265084898647753,-1.1901329602369692,2.784091743204282
10407,-3.310754998201219,0.2451027562984459,-2.0668175763777996,4.598903635098516
10408,-2.9187368099202216,-1.409227649389159,-2.1354077956740496,5.8183027439482435
10409,-2.7751498671198767,-3.3987917328109876,-1.0044243831190858,5.765706305974158
10410,-3.064853109310945,-3.183412804996138,1.506293133289613,4.594736836654484
10411,-4.087420875556514,-2.385693341812761,3.574368380826927,3.2514333326885607
10412,-6.158746472654397,-3.8388220165932023,2.779900511239343,-0.13710051471607754
10413,-5.914226540672694,-3.7593103789358677,1.6338009979486965,-2.9523424416826667
10414,-3.840555524257252,-2.0051704784286493,0.9706091091114638,-3.6455338841128464
10415,-3.783198674960064,-2.15955883120889,0.9732917765777829,-3.900222533974228
10416,-4.14190138452786,-1.8944503847172172,2.3041200093634027,-3.8217909945514204
10417,-2.2640621626612534,0.18021810225240306,2.8499034337991582,-2.71810273009029
10418,-1.0386844368342711,1.2685294199579906,1.8534746147745051,-1.5143668936255856
10419,-1.6409465772742646,2.5587445402740348,1.1386296168184873,0.36353567034280704
10420,-2.0171258311421503,4.15991797009127,0.5159268958180586,1.7183645496780788
10421,-1.6562187908149457,2.2422408927148285,-0.16966885075475663,0.5572596236681943
10422,-0.5935073802482825,-1.3755422352008013,0.13114526943563168,-0.16553185483481817
10423,0.331180943068944,-3.1373869822234526,0.8583523656575796,-0.6666741641127213
10424,1.5075787647557637,-2.470596660262082,3.253444661376719,-1.2653685818866793
10425,2.6915635013171486,-0.30048470986363385,6.3745215393089,-0.7913872845193237
10426,3.5692719924464718,2.224597637661691,7.561065496188274,0.1883978782665506
10427,4.541007865151689,4.371221176708394,6.541266085652372,1.2016963408316694
10428,4.639593776262938,4.932609396922523,3.1306321791128164,1.3148790200848832
10429,4.1038896929210775,4.193336909835956,0.7525202712842128,1.6113995189984038
10430,2.7016404807349277,2.622711289892542,0.8229801231254872,1.5804819169183422
10431,0.5763857423162118,0.2980020176741699,1.0143541528163964,-0.3813445099874285
10432,-0.8014114132826125,-1.5054671576807575,1.5288849727564537,-2.3828055233817453
10433,-1.547514047162839,-1.7762133968712968,2.312099789441357,-3.6137507929501584
10434,-0.7851987852216646,-0.6486881284114054,3.26103657406206,-4.4380257230274305
10435,0.4125827592524968,0.5907894527782329,2.9089603100242902,-4.555504836320511
10436,-1.3234155054960417,0.5297389603899868,0.22495615149277678,-3.9153086290678867
10437,-3.390580701288306,0.4667399063427716,-1.5545983739527984,-3.3890156064594357
10438,-2.728114502803101,1.8298188295773958,-0.21574801760367887,-3.467084593464574
10439,-3.14325534066937,1.8871071144228984,1.6324029399249882,-3.237769525149952
10440,-4.455179473255104,-0.37485565292689593,2.197005783982733,-2.441718659572572
10441,-3.377993524923879,-3.292634727536186,1.6575817978515064,-1.4401447048277223
10442,-2.5682535185343416,-4.910951721342815,0.7671231526576139,-0.6185137503203001
10443,-2.6710666658662676,-4.522257351990419,1.8162340248219289,-1.203977353956568
10444,-2.7192182152004474,-4.372905314585033,3.9985879987236856,-2.896996248991402
10445,-2.959138768628142,-5.440913547439119,5.953388956915965,-3.8118471850502624
10446,-2.762382332340341,-7.01325054797666,7.142815029516825,-5.62490160996278
10447,-2.476184149920319,-7.694130245693927,7.346426088546106,-8.397728109127195
10448,-1.233057668061102,-6.468017246925948,6.997759662353429,-9.153597245478421
10449,0.9110528291044242,-4.176213115021886,5.860512301396004,-6.902225499421709
10450,1.547935181512469,-2.7876959857811006,4.7506575788597765,-1.999420228108372
10451,0.8115410825424989,-2.4395574329332845,3.8019771054426856,2.454841912619285
10452,-0.44750169404748985,-2.4744064490916156,2.7738031541582324,4.556807448119866
10453,-1.519569060891623,-2.4280434422821546,2.3870151040348655,5.159872977604118
